Stress,Strain
4480380952,1.9314E-05
4.70287E+11,0.000027306
5.17839E+11,3.5298E-05
5.2831E+11,4.1958E-05
5.43579E+11,4.9284E-05
5566666667,5.7942E-05
5.73681E+11,6.5934E-05
5.92876E+11,0.000073926
6.10763E+11,8.2584E-05
6.26468E+11,0.000091242
6.49154E+11,9.9234E-05
6.71839E+11,0.00010656
6.89289E+11,0.000114552
7.04122E+11,0.00012321
7.1721E+11,0.000131868
7.36842E+11,0.00013986
7.61272E+11,0.00014652
7.83521E+11,0.00015318
7.953E+11,0.00015984
8.01408E+11,0.000167832
8.16677E+11,0.000175158
8.33691E+11,0.000181818
8.46342E+11,0.000188478
8.65102E+11,0.000194472
8.82552E+11,0.000201132
8.94767E+11,0.000209124
90872761905,0.000217116
9.23124E+11,0.00022311
9.37521E+11,0.000230436
9.51917E+11,0.00023976
9.61515E+11,0.000247086
9.72858E+11,0.000253746
9.90744E+11,0.000261738
1.00383E+12,0.000270396
1.0191E+12,0.000279054
1.04135E+11,0.000287712
1.06316E+12,0.000294372
1.08716E+12,0.000302364
1.10635E+12,0.00030969
1.119E+12,0.00031635
1.13689E+12,0.000321678
1.15652E+12,0.000329004
1.17005E+12,0.00033633
1.17964E+12,0.000343656
1.18881E+12,0.000350316
1.19797E+12,0.000356976
1.21324E+12,0.000363636
1.22763E+12,0.000368964
1.2381E+12,0.000374958
1.2573E+12,0.000382284
1.27475E+12,0.000388944
1.28347E+12,0.000395604
1.29613E+11,0.000402264
1.30878E+11,0.000408258
1.31881E+12,0.000414918
1.33452E+12,0.000422244
1.3524E+12,0.00042957
1.36418E+12,0.000435564
1.3764E+12,0.000441558
1.39036E+12,0.000446886
1.39516E+12,0.00045288
1.39603E+12,0.00045954
1.41173E+12,0.000465534
1.41915E+12,0.000471528
1.42918E+11,0.000477522
1.4366E+12,0.00048285
1.43529E+12,0.000488178
1.45274E+12,0.000493506
1.47019E+12,0.000500166
1.48415E+12,0.000506826
1.47761E+11,0.000513486
1.48677E+12,0.000520146
1.50509E+12,0.000527472
1.51731E+12,0.000535464
1.52822E+12,0.000544122
1.53999E+12,0.000553446
1.55483E+12,0.000561438
1.57446E+12,0.00056943
1.59365E+12,0.000577422
1.61067E+11,0.000585414
1.62594E+12,0.00059274
1.64252E+12,0.000601398
1.65778E+12,0.000610056
1.67262E+11,0.00061938
1.68789E+12,0.000626706
1.70359E+12,0.000634032
1.72322E+12,0.000640692
1.74024E+12,0.000647352
1.7542E+12,0.000654012
1.76467E+12,0.000661338
1.77296E+12,0.000667998
1.78561E+12,0.000674658
1.80044E+12,0.000681318
1.81222E+12,0.000688644
1.82182E+12,0.00069597
1.83142E+12,0.000701964
1.84319E+12,0.000708624
1.85497E+11,0.000713952
1.86021E+12,0.000719946
1.85955E+11,0.000725274
1.86588E+11,0.000731934
1.8842E+12,0.000738594
1.89816E+12,0.000745254
1.9082E+11,0.000751248
1.91692E+11,0.000757242
1.92652E+11,0.00076257
1.93568E+11,0.000767232
1.93394E+11,0.000771894
1.93917E+11,0.000777888
1.94484E+11,0.000783882
1.94964E+11,0.000791208
19548761905,0.000797868
1.97189E+11,0.000804528
1.98105E+11,0.000810522
1.98978E+11,0.000817182
20046095238,0.000825174
2.01944E+11,0.000834498
2.0286E+11,0.000843156
2.04387E+11,0.000851814
2.06787E+11,0.000860472
2.08445E+11,0.000868464
2.09622E+11,0.000875124
2.11193E+11,0.00088245
21267619048,0.000890442
21359238095,0.000898434
2.14814E+11,0.000905094
2.16428E+11,0.000913086
2.17737E+11,0.000921744
2.19177E+11,0.000931068
2.20442E+11,0.00093906
2.2162E+11,0.000946386
22358285714,0.00095238
2.25284E+11,0.000957708
2.25764E+11,0.000961038
2.25568E+11,0.0009657
2.2583E+11,0.000971028
2.2583E+11,0.00097569
2.26026E+11,0.000981684
2.2584E+11,0.000987012
2.26058E+11,0.00099234
2.26789E+11,0.000998334
2.28033E+11,0.00100566
2.27356E+11,0.00101232
2.27945E+11,0.001018314
2.29821E+11,0.001022976
23082476190,0.001028304
2.30432E+11,0.001033632
23126095238,0.001039626
2.31632E+11,0.001046286
2.32155E+11,0.001052946
2.32919E+11,0.001061604
2.35013E+11,0.001070262
2.35929E+11,0.001077588
2.36714E+11,0.001084914
23806666667,0.001091574
2.4003E+11,0.0010989
2.41295E+11,0.00110556
2.416E+11,0.001112886
2.43084E+11,0.001120212
2.44436E+11,0.001126872
2.45134E+11,0.001133532
24666095238,0.001139526
2.47926E+11,0.001144854
2.49148E+11,0.00114885
2.50064E+11,0.00115218
2.49627E+11,0.001157508
2.49889E+11,0.001163502
2.49824E+11,0.001170162
2.50064E+11,0.001174824
2.51591E+11,0.001180818
25207047619,0.001186812
2.51874E+11,0.001192806
25231047619,0.001198134
2.52419E+11,0.001204128
25298666667,0.00120879
2.54514E+11,0.001213452
2.55124E+11,0.001219446
2.54972E+11,0.001224774
25545142857,0.001230102
2.56106E+11,0.00123543
2.57742E+11,0.001241424
2.57437E+11,0.001248084
2.58265E+11,0.001253412
2.58789E+11,0.001259406
2.59203E+11,0.001266066
2.59705E+11,0.001272726
2.60054E+11,0.001279386
2.61712E+11,0.001287378
2.63108E+11,0.001294038
2.64024E+11,0.001300032
2.65027E+11,0.001304694
2.66598E+11,0.001310022
2.67514E+11,0.001314684
2.671E+11,0.001321344
2.67732E+11,0.001326672
2.67819E+11,0.001332
2.67972E+11,0.001337994
2.68168E+11,0.001343322
2.68496E+11,0.001349982
2.69019E+11,0.001356642
26949904762,0.001363968
2.70088E+11,0.001370628
2.70742E+11,0.00137862
2.72487E+11,0.001387278
2.7384E+11,0.00139527
2.75541E+11,0.001402596
27698095238,0.001409922
2.78072E+11,0.001417914
2.78857E+11,0.00142524
2.79817E+11,0.001432566
2.80907E+11,0.001439892
2.82216E+11,0.001446552
28330666667,0.001453212
2.82936E+11,0.001459206
2.83765E+11,0.001465866
2.84354E+11,0.001473192
2.84812E+11,0.001479852
2.85706E+11,0.001485846
2.87538E+11,0.001492506
2.88411E+11,0.001497834
2.8924E+11,0.001503828
2.89022E+11,0.001509822
2.89371E+11,0.001515816
2.89981E+11,0.001521144
2.91334E+11,0.001526472
2.90941E+11,0.001531134
29166095238,0.001535796
2.92163E+11,0.00154179
2.92664E+11,0.001546452
2.93101E+11,0.001551114
2.93471E+11,0.001555776
2.93668E+11,0.001559772
29392952381,0.001564434
2.94082E+11,0.001570428
2.94279E+11,0.001577088
2.94431E+11,0.001582416
2.94933E+11,0.001587744
2964380952,0.001594404
2.96089E+11,0.001601064
2.96743E+11,0.001607724
2.97267E+11,0.00161505
29870666667,0.001622376
2.98488E+11,0.001629702
2.99165E+11,0.001637694
3.01324E+11,0.001646352
3.03549E+11,0.001655676
3.04989E+11,0.001664334
3.06254E+11,0.001672326
3.08042E+11,0.00168165
3.097E+11,0.001689642
3.10966E+11,0.001696302
3.12449E+11,0.001703628
3.13758E+11,0.001710954
3.14237E+11,0.001719612
3.14346E+11,0.001726938
31633142857,0.001732932
3.17378E+11,0.00173826
3.17902E+11,0.001743588
3.17771E+11,0.001750914
31836000000,0.001759572
3.18905E+11,0.00176823
3.19407E+11,0.001775556
3.21392E+11,0.001782882
3.23617E+11,0.001790208
3.24708E+11,0.001796202
3.25187E+11,0.001802196
3.25253E+11,0.00180819
3.25515E+11,0.00181485
3.25689E+11,0.00182151
3.25711E+11,0.001828836
3.25591E+11,0.001836162
3.27325E+11,0.001842822
3.28241E+11,0.001849482
32946285714,0.001856142
3.30335E+11,0.001862802
3.3003E+11,0.001868796
3.30619E+11,0.001876122
3.30902E+11,0.001882782
3.31448E+11,0.001889442
3.33171E+11,0.001896102
3.34262E+11,0.001903428
3.3496E+11,0.00191142
3.34894E+11,0.001918746
3.35527E+11,0.001926738
33762095238,0.001934064
3.39802E+11,0.001943388
3.40108E+11,0.001953378
3.39889E+11,0.001963368
3.40697E+11,0.001972692
3.43467E+11,0.00198135
3.45692E+11,0.001989342
3.47262E+11,0.001996668
3.4844E+11,0.002003994
3.49138E+11,0.002011986
3.48876E+11,0.002019312
3.49662E+11,0.002026638
3.51276E+11,0.002033298
3.52323E+11,0.002039958
3.53632E+11,0.002046618
3.54286E+11,0.00205128
3.54155E+11,0.002057274
3.54548E+11,0.002063268
3.54679E+11,0.002069262
3.54766E+11,0.002075256
3.54384E+11,0.002080584
3.54602E+11,0.002086578
3.54842E+11,0.002092572
3.55017E+11,0.002098566
3.55529E+11,0.002103894
3.5566E+11,0.002109222
3.55311E+11,0.00211455
35560571429,0.002120544
3.57209E+11,0.002126538
3.56904E+11,0.002132532
3.57318E+11,0.00213786
3.57493E+11,0.002143854
3.57449E+11,0.00215118
3.57689E+11,0.002159172
3.57656E+11,0.002167164
35843047619,0.002175822
3.59238E+11,0.00218448
3.60917E+11,0.002193804
3.61833E+11,0.002203128
3.63447E+11,0.002212452
3.6576E+11,0.00222111
3.67286E+11,0.002230434
3.68421E+11,0.002240424
3.69337E+11,0.002249082
3.70035E+11,0.002257074
3.71693E+11,0.0022644
3.73176E+11,0.002271726
3.73961E+11,0.002278386
3.74921E+11,0.002285046
3.75532E+11,0.002291706
3.75335E+11,0.0022977
3.75772E+11,0.002305026
37605523810,0.00231102
3.76164E+11,0.002316348
3.76274E+11,0.002322342
3.75968E+11,0.002328336
3.76121E+11,0.00233433
3.7635E+11,0.00234099
3.76557E+11,0.002346984
3.77408E+11,0.002352978
3.77713E+11,0.002359638
3.77931E+11,0.002366964
3.78455E+11,0.002372958
3.79633E+11,0.002378952
3.79502E+11,0.00238428
3.80134E+11,0.002390274
3.80483E+11,0.002396268
3.80745E+11,0.002402262
3.81181E+11,0.002408922
3.81399E+11,0.002415582
3.81596E+11,0.002421576
3.82163E+11,0.002426904
38242476190,0.002431566
3.82708E+11,0.002438226
3.82883E+11,0.002446218
3.82534E+11,0.002454876
3.82708E+11,0.002461536
3.84388E+11,0.002468196
38556571429,0.002474856
3.85958E+11,0.002482848
3.86133E+11,0.002492172
3.86656E+11,0.002501496
3.87354E+11,0.002509488
3.89405E+11,0.002516814
3.90365E+11,0.00252414
3.90059E+11,0.002531466
3.90975E+11,0.002539458
3.92546E+11,0.002546784
3.92241E+11,0.00255411
3.93113E+11,0.002560104
3.94771E+11,0.002566098
3944000000,0.002571426
3.94705E+11,0.00257742
3.94553E+11,0.002583414
3.94182E+11,0.002589408
3.94509E+11,0.002595402
3.94749E+11,0.002601396
3.94923E+11,0.002608722
3.95425E+11,0.002616714
3.95665E+11,0.002623374
3.9632E+11,0.002630034
39778095238,0.00263736
3.9765E+11,0.002643354
39826095238,0.002650014
39850095238,0.00265401
3.98719E+11,0.00265734
3.9885E+11,0.002660004
3.98621E+11,0.002664
39857714286,0.002668662
3.97039E+11,0.00267399
3.96516E+11,0.002681982
3.96603E+11,0.002689308
3.96581E+11,0.002695302
3.96734E+11,0.00270063
39722476190,0.002705958
3.97759E+11,0.002711286
3.99221E+11,0.002719278
3.9861E+11,0.002725938
39893714286,0.002732598
3.99134E+11,0.00274059
4.00224E+11,0.002748582
3.99941E+11,0.002756574
4.00682E+11,0.0027639
40120571429,0.002771226
4.02667E+11,0.002778552
40415047619,0.002785212
4.05372E+11,0.00279054
4.0655E+11,0.002796534
4.07204E+11,0.00280386
4.06768E+11,0.00281052
4.07161E+11,0.002815848
4.07422E+11,0.002821842
40772761905,0.002827836
4.08317E+11,0.002832498
40888380952,0.002837826
4.09146E+11,0.00284382
4.09342E+11,0.00285048
40932000000,0.00285714
4.09091E+11,0.002863134
4.09494E+11,0.002869128
4.1161E+11,0.002875122
4.11022E+11,0.002879784
4.11414E+11,0.002885778
4.1124E+11,0.002891772
4.11283E+11,0.0028971
4.11305E+11,0.002903094
41158857143,0.002909754
4.12134E+11,0.002915748
4.12221E+11,0.002921742
4.12461E+11,0.002928402
4.12897E+11,0.002935062
4.13268E+11,0.002941722
4.13923E+11,0.00294705
4.14162E+11,0.002953044
4.14621E+11,0.002958372
4.15122E+11,0.002964366
4.15231E+11,0.002969694
4.15471E+11,0.002975022
4.15624E+11,0.00298035
4.15417E+11,0.002985012
4.15526E+11,0.002991006
4.15777E+11,0.002997
4.15929E+11,0.00300366
4.16028E+11,0.003009654
4.16584E+11,0.003015648
4.16409E+11,0.003022974
4.16584E+11,0.003029634
4.17347E+11,0.003036294
4.17849E+11,0.003042954
4.18547E+11,0.003049614
41998666667,0.00305694
4.19703E+11,0.003064266
4.20096E+11,0.003070926
4.20532E+11,0.003078918
4.22037E+11,0.003087576
4.22604E+11,0.003094902
4.22582E+11,0.003102228
4.23346E+11,0.003108888
4.24786E+11,0.003114882
4.25658E+11,0.003120876
4.26443E+11,0.00312687
4.27316E+11,0.003132198
4.27163E+11,0.00313686
4.27468E+11,0.003142854
4.2773E+11,0.003148848
4.27643E+11,0.003155508
4.27458E+11,0.003161502
4.27839E+11,0.00316683
4.29584E+11,0.00317349
4.2917E+11,0.00318015
4.29432E+11,0.003186144
4.29606E+11,0.003192138
4.29759E+11,0.003198132
4.30195E+11,0.00320346
4.30588E+11,0.003209454
4.30762E+11,0.003215448
4.30937E+11,0.003220776
4.31177E+11,0.003226104
4.31678E+11,0.003231432
4.32311E+11,0.003236094
4.32834E+11,0.003241422
4.32987E+11,0.00324675
4.32987E+11,0.003252078
4.32649E+11,0.003259404
4.32845E+11,0.003266064
4.32911E+11,0.00327339
4.33031E+11,0.003280716
4.34165E+11,0.003287376
4.35038E+11,0.003294702
4.35866E+11,0.003302694
4.36564E+11,0.003311352
43761142857,0.00332001
4.3892E+11,0.003327336
4.39836E+11,0.003333996
44079619048,0.003341322
4.41974E+11,0.003349314
4.42934E+11,0.003357972
44258476190,0.00336663
4.43348E+11,0.003374622
4.45246E+11,0.00338328
4.45944E+11,0.003391938
4.45835E+11,0.003399264
4.47864E+11,0.00340659
44891047619,0.003413916
4.49521E+11,0.003419244
4.495E+11,0.003425904
4.49805E+11,0.00343323
4.50045E+11,0.003439224
4.50219E+11,0.003445884
4.50481E+11,0.003452544
4.50939E+11,0.003459204
4.51397E+11,0.003467196
45185523810,0.003474522
4.52357E+11,0.003481848
4.5275E+11,0.003490506
4.53164E+11,0.003499164
4.53579E+11,0.003507156
4.53993E+11,0.003514482
4.55585E+11,0.003521142
4.56676E+11,0.003527802
4.56262E+11,0.003534462
45687238095,0.003539124
4.5709E+11,0.003544452
4.57199E+11,0.003551112
4.57396E+11,0.003557772
4.57199E+11,0.003565764
4.57396E+11,0.003572424
4.5757E+11,0.00357975
4.5853E+11,0.003587742
46025333333,0.003597732
4.59904E+11,0.00360639
4.60755E+11,0.00361638
4.62827E+11,0.00362637
4.64616E+11,0.003634362
4.6623E+11,0.003641688
4.67146E+11,0.003649014
4.66928E+11,0.00365634
4.67801E+11,0.003664332
4.69153E+11,0.003672324
4.68935E+11,0.00367965
46932761905,0.003686976
4.69742E+11,0.003694302
4.7164E+11,0.003703626
4.72643E+11,0.003710286
4.72141E+11,0.003716946
4.73014E+11,0.003720942
4.7321E+11,0.00372627
4.73516E+11,0.003731598
47382095238,0.003738258
4.73276E+11,0.003744252
4.73286E+11,0.003748914
4.73254E+11,0.003755574
4.72425E+11,0.003760902
4.72359E+11,0.00376623
4.72359E+11,0.003772224
47270857143,0.003778218
4.72676E+11,0.003784878
4.73188E+11,0.003791538
4.73232E+11,0.003797532
47338476190,0.003803526
47314476190,0.00380952
4.73199E+11,0.00381618
4.73188E+11,0.00382284
47338476190,0.0038295
4.73439E+11,0.003836826
4.73548E+11,0.003843486
4.74475E+11,0.003851478
4.74824E+11,0.003860136
4.75304E+11,0.003870126
47584952381,0.003878784
4.77616E+11,0.003887442
4.79449E+11,0.0038961
4.80758E+11,0.003904758
4.81761E+11,0.00391275
4828952381,0.003920742
4.82437E+11,0.003928734
4.82961E+11,0.00393606
4.83179E+11,0.003944052
4.83397E+11,0.003952044
4.84771E+11,0.00395937
4.85687E+11,0.00396603
4.8656E+11,0.00397269
4.86407E+11,0.003978684
4.86822E+11,0.003984012
4.87214E+11,0.003990006
4.87258E+11,0.003996666
4.87323E+11,0.004003326
4.87181E+11,0.004009986
4.87454E+11,0.004017312
4.87618E+11,0.004024638
4.88348E+11,0.004031964
4.88697E+11,0.004038624
48922095238,0.004045284
4.90704E+11,0.004051278
4.9053E+11,0.004057938
4.91162E+11,0.004064598
49148952381,0.004070592
4.91708E+11,0.004077252
49192571429,0.004083912
4.92209E+11,0.004090572
4.92558E+11,0.004097232
4.93016E+11,0.004103892
4.93431E+11,0.004110552
49351809524,0.00411588
4.93802E+11,0.004121874
4.93823E+11,0.004129866
4.93616E+11,0.004136526
4.93791E+11,0.00414252
4.93976E+11,0.004148514
4.94609E+11,0.004153842
4.95132E+11,0.00415917
4.95438E+11,0.004165164
49598285714,0.004171158
49622285714,0.004177818
4.9607E+11,0.004185144
4.95743E+11,0.00419247
4.96016E+11,0.004199796
4.96986E+11,0.004206456
4.96408E+11,0.004213116
4.97423E+11,0.00421911
4.97794E+11,0.004224438
4.98033E+11,0.004228434
4.98077E+11,0.004234428
4.97728E+11,0.004241088
4.97881E+11,0.004247748
4.98001E+11,0.004253076
4.9811E+11,0.004260402
4.98164E+11,0.004268394
4.98121E+11,0.004275054
4.9823E+11,0.004283046
4.9895E+11,0.004288374
5.00564E+11,0.004293702
5.00258E+11,0.004299696
5.00716E+11,0.004305024
5.00847E+11,0.004311018
5.00607E+11,0.004317012
5.00389E+11,0.004324338
5.00705E+11,0.004331664
5.01829E+11,0.004338324
5.01458E+11,0.004344318
5.0196E+11,0.004350978
5.02287E+11,0.004357638
5.02723E+11,0.004362966
5.0329E+11,0.004369626
5.03486E+11,0.004376952
5.03552E+11,0.004383612
5.03639E+11,0.004390272
5.03454E+11,0.004396932
5.0365E+11,0.004404258
5.03923E+11,0.004410918
5.05581E+11,0.004418244
5.06758E+11,0.004424904
5.08111E+11,0.004431564
50867809524,0.004437558
5.08569E+11,0.004444218
5.08962E+11,0.004450212
5.09049E+11,0.004456206
5.09245E+11,0.004461534
5.09398E+11,0.004468194
5.09289E+11,0.004474854
5.09921E+11,0.004480182
5.10009E+11,0.004486176
5.09769E+11,0.004490838
5.09987E+11,0.004496166
5.10107E+11,0.004501494
5.10194E+11,0.004506156
5.10292E+11,0.00451215
5.10358E+11,0.00451881
5.10314E+11,0.00452547
5.10369E+11,0.00453213
5.10467E+11,0.00453879
5.1051E+11,0.00454545
5.10641E+11,0.00455211
5.11514E+11,0.00455877
5.13128E+11,0.004564764
51408761905,0.004569426
5.13848E+11,0.00457542
5.14415E+11,0.004581414
5.14502E+11,0.004586076
5.14306E+11,0.00459207
5.13924E+11,0.004598064
5.14066E+11,0.00460539
5.13608E+11,0.004610718
51408761905,0.00461538
5.14197E+11,0.004620708
5.14786E+11,0.004626702
5.15091E+11,0.00463203
5.15287E+11,0.00463869
5.15375E+11,0.00464535
5151238095,0.004651344
5.15342E+11,0.004657338
5.15506E+11,0.004663332
5.15582E+11,0.004669326
5.15746E+11,0.004675986
5.16422E+11,0.004682646
5.16574E+11,0.004689306
5.16814E+11,0.004695966
5.17316E+11,0.004703958
5.19017E+11,0.004711284
5.19585E+11,0.004717944
5.19257E+11,0.00472527
5.19824E+11,0.004732596
5.21199E+11,0.004739922
5.21679E+11,0.004745916
5.21635E+11,0.00475191
5.22049E+11,0.004757904
5.22377E+11,0.004763898
5.22747E+11,0.004771224
5.229E+11,0.004777884
5.23184E+11,0.004785876
5.23576E+11,0.004793868
5.24013E+11,0.004802526
5.25605E+11,0.004809186
5.26521E+11,0.004815846
5.27306E+11,0.004823172
5.27197E+11,0.004829166
5.27525E+11,0.004834494
5.27874E+11,0.004839822
52813523810,0.004845816
5.28528E+11,0.004851144
52881142857,0.00485514
5.28986E+11,0.004860468
5.28921E+11,0.004866462
5.28462E+11,0.004871124
5.28495E+11,0.004875786
5.2807E+11,0.004880448
5.27786E+11,0.00488511
52813523810,0.004889772
5.28048E+11,0.0048951
5.27917E+11,0.004901094
5.27743E+11,0.004907088
5.27797E+11,0.004914414
5.27841E+11,0.004921074
5.27841E+11,0.004927734
5.28462E+11,0.004935726
5.28899E+11,0.004943052
5.294E+11,0.004949712
53016380952,0.004956372
53175619048,0.004963032
5.3156E+11,0.004971024
53219238095,0.004979682
5.32716E+11,0.00498834
5.34417E+11,0.004996998
5.35595E+11,0.005006988
5.36162E+11,0.00501498
5.37122E+11,0.00502164
53899809524,0.005028966
5.40176E+11,0.005036958
5.39631E+11,0.005043618
5.40547E+11,0.005050944
5.40961E+11,0.005059602
5.41441E+11,0.00506826
5.42074E+11,0.005076252
5.43492E+11,0.00508491
54488761905,0.005090904
5.45629E+11,0.005096898
5.45477E+11,0.005103558
54580380952,0.005108886
54580380952,0.005114214
54580380952,0.005120874
5.45542E+11,0.005126868
5.45695E+11,0.005133528
54576000000,0.005138856
5.45847E+11,0.00514485
5.45749E+11,0.00515151
5.45771E+11,0.005157504
5.45858E+11,0.005162832
5460000000,0.005169492
5.46098E+11,0.005176818
5.46294E+11,0.005184144
5.46763E+11,0.00519147
54648000000,0.005200128
5.47113E+11,0.00520812
5.47418E+11,0.005216112
5.47898E+11,0.005225436
5.48443E+11,0.005234094
5.5021E+11,0.00524142
5.51431E+11,0.00524808
5.52478E+11,0.005253408
5.53656E+11,0.005260068
5.53046E+11,0.005267394
5.53395E+11,0.00527472
55348190476,0.005283378
5.53569E+11,0.005292702
5.54965E+11,0.00530136
5.55794E+11,0.005310018
5.5719E+11,0.00531801
5.58804E+11,0.005326002
5.59677E+11,0.005333328
5.59437E+11,0.005340654
56024380952,0.00534798
5.61771E+11,0.005355972
5.61291E+11,0.005363298
5.61989E+11,0.005370624
5634285.714,0.00537795
5.64083E+11,0.00538461
5.63734E+11,0.005390604
5.64258E+11,0.005396598
5.64759E+11,0.00540126
5.64868E+11,0.005406588
5.64999E+11,0.005412582
5.65043E+11,0.005418576
5.64792E+11,0.00542457
5.6489E+11,0.005429232
5.64966E+11,0.005435892
5.64868E+11,0.005441886
5.64705E+11,0.00544788
5.64705E+11,0.005453874
5.6477E+11,0.005459202
5.64803E+11,0.005465862
5647809524,0.005471856
5647809524,0.00547785
5.64912E+11,0.005483844
5.65054E+11,0.005490504
5.65206E+11,0.00549783
5.65359E+11,0.005505156
5.65468E+11,0.005513148
5.65479E+11,0.00552114
5.65795E+11,0.005529132
5674857143,0.00553779
5.67115E+11,0.005547114
5.68227E+11,0.005555772
5.70103E+11,0.005566428
5.70976E+11,0.005577084
5.72852E+11,0.005585742
5.74597E+11,0.0055944
5.756E+11,0.005601726
5.76429E+11,0.005609052
5.77607E+11,0.005617044
5.78218E+11,0.00562437
5.78109E+11,0.00563103
5.78763E+11,0.005638356
5.79134E+11,0.005646348
5.79614E+11,0.005653008
5.79766E+11,0.005659002
5.79919E+11,0.005663664
5.80028E+11,0.005668326
5.79865E+11,0.00567432
5.7993E+11,0.005679648
5.79854E+11,0.005686308
5.79832E+11,0.005691636
5.79766E+11,0.00569763
57926476190,0.005703624
5.79603E+11,0.005709618
5.7957E+11,0.005715612
5.79537E+11,0.00572094
5.80028E+11,0.005726934
5.79777E+11,0.005732928
5.79756E+11,0.005740254
5.79756E+11,0.005746914
5.80017E+11,0.005753574
5.81708E+11,0.005759568
5.82406E+11,0.005766228
5.81948E+11,0.005773554
5.82275E+11,0.005780214
5.82733E+11,0.005786874
5.83671E+11,0.0057942
5.83257E+11,0.00580086
5.83693E+11,0.005808186
5.83933E+11,0.005816844
5.85242E+11,0.005825502
5.85132E+11,0.005835492
5.85787E+11,0.005844816
5.87466E+11,0.005852808
5.88732E+11,0.005862132
5.90171E+11,0.005872122
5.91654E+11,0.00588078
5.93007E+11,0.005888106
5.93967E+11,0.0058941
5.93639E+11,0.00590076
5.94316E+11,0.005906754
5.94796E+11,0.005913414
5.94948E+11,0.00592074
5.94992E+11,0.005925402
5.94599E+11,0.005929398
5.94763E+11,0.00593406
5.94796E+11,0.005939388
5.94741E+11,0.00594405
5.9401E+11,0.005950044
5.92614E+11,0.005956038
59283238095,0.005961366
5.92374E+11,0.005968026
5.92309E+11,0.005974686
59239619048,0.005979348
5.9268E+11,0.00598401
5.92582E+11,0.005989338
5.9268E+11,0.005995332
5.92723E+11,0.00600066
5.92723E+11,0.00600732
5.92614E+11,0.006014646
5.91E+11,0.006021306
5.91633E+11,0.0060273
5.92658E+11,0.006034626
5.93138E+11,0.006041286
5.93007E+11,0.006047946
5.93596E+11,0.006054606
5.94054E+11,0.006059268
5.94447E+11,0.006065262
59490476190,0.006071922
5.95079E+11,0.006078582
5.95254E+11,0.006086574
5.95537E+11,0.006094566
5.95265E+11,0.006102558
5.9545E+11,0.006109218
5.96344E+11,0.006115212
5.97937E+11,0.006119874
5.98504E+11,0.006124536
5.9846E+11,0.006129198
5.98809E+11,0.00613386
5.9894E+11,0.006138522
5.9894E+11,0.006144516
5.9858E+11,0.006149844
59872190476,0.006155838
5.98777E+11,0.006163164
5.98744E+11,0.006168492
5.98787E+11,0.006175152
5.98886E+11,0.006181146
5.98886E+11,0.00618714
5.99311E+11,0.006193134
5.99104E+11,0.006199128
5.99246E+11,0.006206454
5.99496E+11,0.006212448
6.0014E+11,0.006218442
6.00598E+11,0.006224436
6.011E+11,0.006229764
6.01252E+11,0.006235758
6.01558E+11,0.006242418
6.01732E+11,0.006248412
6.01383E+11,0.006254406
6.02038E+11,0.006261066
6.02517E+11,0.006268392
6.02757E+11,0.006274386
6.03281E+11,0.006281046
6.03652E+11,0.00628704
6.0387E+11,0.006293034
6.04219E+11,0.006299028
6.0459E+11,0.006305022
6.04786E+11,0.006309018
60485142857,0.006314346
6050476190,0.006319008
6.04742E+11,0.006325002
60473142857,0.00633033
6.04699E+11,0.006336324
6.04262E+11,0.006342318
6.04557E+11,0.006348978
6.04546E+11,0.006354306
6.04644E+11,0.006360966
6.04622E+11,0.006367626
6.05157E+11,0.006374952
6.05375E+11,0.006382278
6.0568E+11,0.006388938
6.06226E+11,0.00639693
6.06946E+11,0.006404922
6.07622E+11,0.006411582
6.08145E+11,0.006419574
6.08778E+11,0.006426234
6.10283E+11,0.00643356
61093714286,0.006440886
6.10784E+11,0.006448212
6.11286E+11,0.006454872
6.11831E+11,0.006462198
61228952381,0.006468858
6.12639E+11,0.006475518
6.13097E+11,0.006482844
6.13467E+11,0.006488838
6.13838E+11,0.006496164
6.14253E+11,0.006502158
6.14514E+11,0.006508152
6.14602E+11,0.00651348
6.14602E+11,0.006518808
6.14471E+11,0.006524802
6.14536E+11,0.00653013
6.14493E+11,0.006535458
6.14482E+11,0.006540786
6.14602E+11,0.00654678
6.14591E+11,0.006551442
6.14569E+11,0.006556104
6.14504E+11,0.006560766
6.14471E+11,0.006565428
6.14471E+11,0.006569424
6.1446E+11,0.006574086
6144380952,0.00658008
61424190476,0.006585408
6.14155E+11,0.00659007
6.14089E+11,0.006596064
6.14111E+11,0.006602724
6.14067E+11,0.006611382
6.14089E+11,0.006619374
6.14296E+11,0.006627366
6.15998E+11,0.006634026
61682666667,0.006642018
6.17917E+11,0.00665001
61909523810,0.006658668
6.20186E+11,0.006667326
6.20971E+11,0.006674652
6.22105E+11,0.00668331
6.23022E+11,0.006691302
6.22738E+11,0.006697962
6.23654E+11,0.006704622
6.25334E+11,0.006711948
6.24963E+11,0.006719274
62566095238,0.0067266
6.27733E+11,0.006733926
6.28824E+11,0.006741252
6.283E+11,0.006748578
6.29129E+11,0.00675657
6.29478E+11,0.006763896
6.30045E+11,0.006770556
6.30547E+11,0.006778548
6.3094E+11,0.006787206
6.31485E+11,0.006795198
6.33448E+11,0.00680319
6.34801E+11,0.00680985
6.3515E+11,0.006815844
63517142857,0.006821172
6.3539E+11,0.006827832
6.3552E+11,0.006834492
6.35804E+11,0.006840486
6.35477E+11,0.006845814
6.35695E+11,0.006851808
6.35804E+11,0.006859134
6.35967E+11,0.006867792
6.36055E+11,0.006875118
6.36262E+11,0.006882444
6.36447E+11,0.006889104
6.37156E+11,0.00689643
6.37614E+11,0.006905088
6.38094E+11,0.00691308
6.3877E+11,0.006921072
6.40472E+11,0.006928398
6.41345E+11,0.006938388
6.42304E+11,0.006947712
6.42871E+11,0.006957702
6.43024E+11,0.006967692
6.45663E+11,0.006975684
6.47059E+11,0.006982344
6.48412E+11,0.00698967
6.49808E+11,0.006996996
6.50419E+11,0.007004988
6.50201E+11,0.007013646
6.50593E+11,0.007021638
6.50986E+11,0.007028298
6.52338E+11,0.007033626
6.53211E+11,0.007038954
6.52862E+11,0.007044282
6.5332E+11,0.007050276
65347238095,0.007055604
6.53407E+11,0.007061598
6.53025E+11,0.007066926
6.53058E+11,0.00707292
6.52687E+11,0.007078248
6.52382E+11,0.007083576
6.52273E+11,0.00708957
6.52524E+11,0.007094232
6.52349E+11,0.00709956
6.52196E+11,0.00710622
65212000000,0.00711288
6.52098E+11,0.007118874
6520000,0.007124202
6.52087E+11,0.007130862
6.52207E+11,0.007138188
6.52927E+11,0.007144182
6.53363E+11,0.007150176
6.5356E+11,0.007156836
6.53843E+11,0.007163496
6.5393E+11,0.007171488
65419238095,0.007178814
6.54781E+11,0.00718614
6.55087E+11,0.007194798
6.55654E+11,0.007203456
6.57137E+11,0.007213446
6.5814E+11,0.007223436
6.59406E+11,0.007232094
66075809524,0.007240752
6.61282E+11,0.00724941
6.62372E+11,0.007257402
6.63986E+11,0.007265394
6.64379E+11,0.007273386
6.64314E+11,0.007281378
6.64946E+11,0.007288038
6.66298E+11,0.007295364
6.66124E+11,0.007302024
6.66495E+11,0.007308018
6.66713E+11,0.007315344
6.66822E+11,0.007321338
6.66996E+11,0.007327332
6.668E+11,0.00733266
6.66942E+11,0.007339986
66696380952,0.007346646
6.66942E+11,0.007353972
6.67029E+11,0.007360632
6.6716E+11,0.007366626
66728000000,0.007373286
6.67825E+11,0.007379946
6.68043E+11,0.007386606
6.68305E+11,0.0073926
6.68502E+11,0.007397928
66867619048,0.007403256
6.68414E+11,0.00740925
6.68534E+11,0.007414578
6.68578E+11,0.007420572
66867619048,0.007427898
6.68818E+11,0.007434558
6.68916E+11,0.007441884
66899238095,0.007447878
6.69636E+11,0.007455204
6.69919E+11,0.007463862
6.70247E+11,0.007471188
6.70661E+11,0.00747918
6.71163E+11,0.007486506
6.72755E+11,0.007494498
6.73628E+11,0.007501824
6.74282E+11,0.007507818
6.74347E+11,0.007513146
6.74915E+11,0.007517808
6.75264E+11,0.00752247
6.75133E+11,0.00752913
6.74544E+11,0.00753579
67464190476,0.007541784
6.74107E+11,0.00754911
67384571429,0.007557102
6.73955E+11,0.007564428
6.74304E+11,0.007573086
6.75853E+11,0.007581078
6.76812E+11,0.007588404
6.76594E+11,0.00759573
6.77314E+11,0.007603722
67790285714,0.007611714
6.78296E+11,0.007618374
67905904762,0.00762237
6.80608E+11,0.007627032
6.80259E+11,0.007633692
6.80564E+11,0.00763902
68041142857,0.00764568
6.79877E+11,0.007651674
6.80008E+11,0.007657668
6.79604E+11,0.007662996
6.79539E+11,0.007666992
6.79757E+11,0.007671654
6.79528E+11,0.00767565
6.79321E+11,0.007680312
6.78601E+11,0.007684308
6.78056E+11,0.007689636
6.77379E+11,0.007696296
6.76812E+11,0.007704288
67635428571,0.00771228
6.76332E+11,0.007719606
6.76572E+11,0.007726932
6.7799E+11,0.007734924
67929904762,0.007742916
6.80041E+11,0.007749576
67997523810,0.00775557
6.81917E+11,0.007761564
6.82789E+11,0.007767558
6.82527E+11,0.00777555
6.82964E+11,0.00778221
6.82964E+11,0.007787538
6.83094E+11,0.007792866
6.82887E+11,0.007798194
6.83247E+11,0.007804854
6.83923E+11,0.007811514
6.84098E+11,0.007818174
6.8425E+11,0.007823502
68446857143,0.007830828
6.84687E+11,0.007836822
6.84905E+11,0.007841484
6.85254E+11,0.007846146
6.85406E+11,0.00785214
6.8545E+11,0.007858134
68506857143,0.007862796
6.85134E+11,0.007868124
6.85221E+11,0.007874118
6.85243E+11,0.007880778
6.8521E+11,0.007887438
6.85079E+11,0.007894098
6.8509E+11,0.007900758
68526476190,0.007908084
6.8689E+11,0.007914078
6.86628E+11,0.007920072
6.87239E+11,0.007926066
68765333333,0.007931394
6.87981E+11,0.007937388
6.88242E+11,0.007942716
6.88286E+11,0.00794871
6.87861E+11,0.007954704
68801333333,0.007960032
6.88253E+11,0.00796536
6.88319E+11,0.007971354
6.88308E+11,0.007976682
6.88319E+11,0.007981344
6.88428E+11,0.007986672
6.88493E+11,0.007991334
6.88591E+11,0.007996662
6.887E+11,0.00800199
6.887E+11,0.008007984
6.88668E+11,0.008013978
6.88744E+11,0.008020638
6.88864E+11,0.008027298
6.88897E+11,0.008033958
6.88973E+11,0.008041284
6.89137E+11,0.00804861
6.89856E+11,0.008055936
6.91645E+11,0.008063262
6.92474E+11,0.008069922
6.92343E+11,0.008076582
69310666667,0.008083908
6.9363E+11,0.008089902
6.93957E+11,0.008097228
6.94524E+11,0.008103888
6948952381,0.008110548
6.95244E+11,0.008117208
6.95855E+11,0.008124534
6.964E+11,0.008131194
6.96771E+11,0.008137854
6.97338E+11,0.008143848
6.97927E+11,0.008150508
6.99323E+11,0.008156502
6.98909E+11,0.008163162
6.99541E+11,0.008169156
6.99999E+11,0.00817515
7.00283E+11,0.008181144
7.00806E+11,0.008187138
7.01112E+11,0.008193132
70122095238,0.008197794
70146095238,0.008202456
7.01745E+11,0.008207784
7.01483E+11,0.008213778
7.02028E+11,0.00821844
7.01755E+11,0.008223102
7.0181E+11,0.008227764
7.01788E+11,0.008233092
7.01875E+11,0.008237754
7.01919E+11,0.008243082
7.01843E+11,0.008249742
7.01723E+11,0.008257068
7.01657E+11,0.00826506
7.01734E+11,0.008273718
7.01865E+11,0.00828171
7.03599E+11,0.008289036
7.04907E+11,0.008296362
7.05474E+11,0.008303022
7.05584E+11,0.008311014
7.07045E+11,0.008319672
7.06805E+11,0.00832833
7.07612E+11,0.008336322
70913904762,0.008344314
7.10012E+11,0.008353638
71140761905,0.00836163
7.12367E+11,0.008369622
7.13153E+11,0.008375616
7.14025E+11,0.008382276
7.13829E+11,0.008389602
7.14374E+11,0.008396262
7.14854E+11,0.008402922
7.16599E+11,0.008408916
7.17602E+11,0.008414244
7.16817E+11,0.00842157
7.16076E+11,0.008428896
7.16555E+11,0.008436222
7.16403E+11,0.008442882
7.17602E+11,0.008449542
7.18562E+11,0.008456202
7.18301E+11,0.008462196
7.18737E+11,0.008469522
7.18868E+11,0.008478846
7.18911E+11,0.008485506
7.19369E+11,0.008492166
7.21311E+11,0.008498826
7.21878E+11,0.008506818
7.21573E+11,0.008512812
7.22074E+11,0.008518806
72227047619,0.0085248
72227047619,0.008532126
7.219E+11,0.008538786
7.22183E+11,0.008545446
7.23274E+11,0.008552772
7.22521E+11,0.008560098
7.23361E+11,0.008570088
7.23797E+11,0.008578746
72501904762,0.008585406
7.26022E+11,0.008592066
7.27506E+11,0.008600058
7.28334E+11,0.008608716
7.28051E+11,0.008617374
7.28618E+11,0.008626032
7.29229E+11,0.008634024
7.30865E+11,0.008642682
7.31606E+11,0.00865134
73313333333,0.008658666
7.34355E+11,0.008665326
7.34835E+11,0.008671986
7.34878E+11,0.008679312
7.35249E+11,0.008686638
7.3562E+11,0.008693298
7.35991E+11,0.008700624
7.36231E+11,0.00870795
73655809524,0.008713278
7.36951E+11,0.008719272
7.37322E+11,0.0087246
7.3754E+11,0.008730594
7.37605E+11,0.008737254
7.37158E+11,0.008743914
7.37256E+11,0.008749908
7.37387E+11,0.008755236
7.37496E+11,0.008761896
7.37463E+11,0.008768556
7.37354E+11,0.008775216
7.37322E+11,0.008780544
7.37387E+11,0.008786538
7.37507E+11,0.008792532
7.37529E+11,0.00879786
7.37507E+11,0.008803188
7.37442E+11,0.008809182
73743047619,0.008816508
7.37398E+11,0.008823834
7.37354E+11,0.008831826
7.37354E+11,0.008839818
7.37452E+11,0.00884781
7.39198E+11,0.008856468
7.40157E+11,0.008865792
7.40724E+11,0.00887445
7.40659E+11,0.008883774
7.41379E+11,0.008892432
7.43342E+11,0.00890109
7.44389E+11,0.008909082
74534857143,0.008917074
7.44934E+11,0.0089244
7.45283E+11,0.00893106
7.4585E+11,0.008938386
7471809524,0.008946378
7.47748E+11,0.008953038
7.47835E+11,0.008959698
7.48075E+11,0.008965692
7.48271E+11,0.008970354
7.48424E+11,0.008975016
7.48097E+11,0.008980344
7.48108E+11,0.008987004
7.48119E+11,0.008992998
7.47486E+11,0.008998992
7.47334E+11,0.009004986
7.47792E+11,0.009010314
7.47802E+11,0.009016308
7.47595E+11,0.009022302
7.47563E+11,0.009028962
7.47606E+11,0.009036288
7.47628E+11,0.009042948
74773714286,0.009049608
7.47835E+11,0.009056934
7.48042E+11,0.00906426
7.48817E+11,0.00907092
74920952381,0.009078246
7.49711E+11,0.009085572
7.50104E+11,0.009091566
7.5054E+11,0.009098892
7.51194E+11,0.009106218
7.51543E+11,0.009112878
7.51827E+11,0.009119538
7.52132E+11,0.009126864
7.52525E+11,0.009135522
7.52918E+11,0.009143514
7.53332E+11,0.009150174
7.53921E+11,0.009158832
7.54314E+11,0.009168822
7.5475E+11,0.009178146
7.55426E+11,0.009185472
7.5752E+11,0.009192798
7.5896E+11,0.009200124
7.5944E+11,0.00920745
75915619048,0.00921411
7.59505E+11,0.009219438
7.59745E+11,0.009224766
7.59811E+11,0.009231426
7.59451E+11,0.009238086
7.59494E+11,0.00924741
7.59549E+11,0.009255402
7.59702E+11,0.009262062
7.60967E+11,0.009268056
7.60727E+11,0.009272718
7.61076E+11,0.009279378
7.61119E+11,0.009284706
76098857143,0.009288036
7.60738E+11,0.009293364
7.60792E+11,0.009298026
7.60203E+11,0.009303354
7.60051E+11,0.009308016
7.5968E+11,0.009312012
7.58349E+11,0.009316008
7.57564E+11,0.009322002
7.57651E+11,0.009326664
7.57215E+11,0.009332658
7.56975E+11,0.009339318
7.56539E+11,0.009346644
7.56342E+11,0.009353304
7.56877E+11,0.00936063
7.57913E+11,0.009367956
7.57498E+11,0.009375948
7.58066E+11,0.00938394
7.58349E+11,0.009389934
7.5896E+11,0.009397926
7.60574E+11,0.009404586
76031238095,0.00941058
7.61098E+11,0.009416574
7.61403E+11,0.009422568
7.61839E+11,0.009428562
7.62166E+11,0.009434556
7.62079E+11,0.00944055
7.61752E+11,0.009445212
7.61839E+11,0.009449874
7.61872E+11,0.009455202
7.61806E+11,0.00946053
7.61774E+11,0.009465858
7.61708E+11,0.009471186
7.61523E+11,0.00947718
76154476190,0.009483174
7.61643E+11,0.009489834
7.61752E+11,0.009495828
7.62363E+11,0.009503154
7.62603E+11,0.009509814
7.62734E+11,0.009515142
7.63192E+11,0.009521802
7.6341E+11,0.009528462
7.63802E+11,0.009536454
7.64195E+11,0.00954378
7.64413E+11,0.00955044
7.64828E+11,0.0095571
7.65177E+11,0.009562428
7.65635E+11,0.009567756
7.66071E+11,0.009575082
7.66333E+11,0.009581742
7.66507E+11,0.009589068
7.66834E+11,0.009595062
7.67009E+11,0.00960039
7.67118E+11,0.009605052
7.67445E+11,0.00961038
7.67107E+11,0.009615708
7.67205E+11,0.009621702
7.6738E+11,0.009627696
76755428571,0.009633024
7.675E+11,0.009638352
7.67598E+11,0.009644346
7.67642E+11,0.009649674
7.67489E+11,0.009655668
7.67423E+11,0.009661662
7.66943E+11,0.009668322
7.67423E+11,0.009676314
7673904762,0.009684306
7.67554E+11,0.009690966
76842666667,0.009697626
7.68885E+11,0.009704952
76934285714,0.009711612
7.69866E+11,0.009718272
7.70281E+11,0.009726264
7.70542E+11,0.009732924
7.71175E+11,0.009739584
77252761905,0.009744912
7.73095E+11,0.009750906
7.7268E+11,0.0097569
7.72789E+11,0.00976356
7.72571E+11,0.009769554
7.72353E+11,0.009775548
7.72538E+11,0.009781542
7.72637E+11,0.009788202
7.72626E+11,0.009794196
7.72538E+11,0.00980019
7.72538E+11,0.009805518
7.72691E+11,0.009811512
7.72822E+11,0.009818172
7.72942E+11,0.009824166
7.73051E+11,0.00983016
7.73018E+11,0.009835488
7.73051E+11,0.009840816
7.73258E+11,0.009846144
7.73444E+11,0.009851472
7.73444E+11,0.0098568
7.73498E+11,0.009862128
7.73564E+11,0.009867456
7.73706E+11,0.009872784
7.73891E+11,0.009878778
7.73956E+11,0.009884106
7.73913E+11,0.0098901
7.73804E+11,0.00989676
7.73749E+11,0.00990342
7.73924E+11,0.00991008
7.74971E+11,0.00991674
7.74731E+11,0.009922734
7.7556E+11,0.00993006
7.75821E+11,0.009938052
7.76214E+11,0.009946044
7.76737E+11,0.009954036
7.78024E+11,0.009962694
7.77872E+11,0.009971352
7.79551E+11,0.00998001
7.80511E+11,0.009989334
7.81471E+11,0.00999666
7.8278E+11,0.010004652
7.84219E+11,0.010012644
7.85092E+11,0.010021302
78493904762,0.010030626
7.85441E+11,0.010040616
7.86052E+11,0.010048608
7.88058E+11,0.010053936
7.88669E+11,0.010059264
78836380952,0.010065924
7.88909E+11,0.010071918
7.89062E+11,0.010078578
7.88909E+11,0.010085238
7.88593E+11,0.010092564
7.88811E+11,0.01009989
7.88844E+11,0.010107882
7.88898E+11,0.010115874
7.89084E+11,0.010122534
7.90589E+11,0.010129194
7.91243E+11,0.010135188
7.91199E+11,0.010142514
7.91898E+11,0.010151172
7.92465E+11,0.010159164
7.92705E+11,0.01016649
7.92966E+11,0.010173816
7.93075E+11,0.010181808
7.93272E+11,0.010188468
7.93861E+11,0.010195128
7.94384E+11,0.010201788
7.94755E+11,0.010207782
7.95038E+11,0.01021311
7.95082E+11,0.010219104
7.94646E+11,0.01022643
7.9494E+11,0.010235088
7.95158E+11,0.010242414
7.95278E+11,0.01024974
7.95976E+11,0.010257066
7.97307E+11,0.010265058
7.98354E+11,0.010273716
7.9794E+11,0.010281708
7.98703E+11,0.0102897
8.00099E+11,0.010297692
8.00622E+11,0.010305684
8.0047E+11,0.010313676
8.01102E+11,0.010322334
8.0263E+11,0.010330992
8.02324E+11,0.010338984
8.03109E+11,0.010347642
8.03786E+11,0.0103563
8.05247E+11,0.010363626
8.06032E+11,0.010370952
8.05945E+11,0.010378278
8.06556E+11,0.010384938
8.07232E+11,0.010391598
8.08694E+11,0.010398258
8.08148E+11,0.010404252
8.08192E+11,0.010410912
8.08104E+11,0.01041624
8.07875E+11,0.010420902
8.08006E+11,0.010424898
8.07963E+11,0.010428894
8.06425E+11,0.010434222
8.05509E+11,0.01043955
8.04898E+11,0.010444212
80507238095,0.01044954
8.04549E+11,0.0104562
8.04222E+11,0.01046286
8.03916E+11,0.01046952
8.03567E+11,0.010476846
8.03567E+11,0.010484838
8.04036E+11,0.01049283
8.04069E+11,0.010500822
8.04833E+11,0.010508814
8.05378E+11,0.01051614
8.0577E+11,0.010524132
8.06447E+11,0.010533456
8.08083E+11,0.010542114
8.08737E+11,0.010550772
80960952381,0.010560096
8.1118E+11,0.01056942
81187809524,0.010578078
81187809524,0.01058607
8.13754E+11,0.010593396
8.13274E+11,0.010600056
8.14038E+11,0.010606716
8.14343E+11,0.01061271
8.14583E+11,0.010618038
8.14779E+11,0.010623366
8.14801E+11,0.010630026
8.14518E+11,0.01063602
8.14561E+11,0.010642014
8.14605E+11,0.010647342
8.14528E+11,0.01065267
8.14332E+11,0.010657998
8.13754E+11,0.01066266
8.13579E+11,0.010668654
8.13918E+11,0.010675314
8.1383E+11,0.010681308
8.13645E+11,0.010686636
8.13579E+11,0.01069263
8.13449E+11,0.01069929
8.13438E+11,0.01070595
8.13405E+11,0.01071261
8.13427E+11,0.01071927
81347047619,0.01072593
8.13558E+11,0.01073259
8.14169E+11,0.010738584
8.14561E+11,0.010743912
8.14801E+11,0.010751238
8.15019E+11,0.010758564
8.1539E+11,0.01076589
8.15564E+11,0.010773882
8.15761E+11,0.01078254
8.16023E+11,0.010789866
8.16393E+11,0.01079586
81685142857,0.01080252
8.18291E+11,0.010809846
8.18117E+11,0.010817838
8.18357E+11,0.01082583
8.18836E+11,0.010835154
8.19949E+11,0.010843146
8.2056E+11,0.010851804
8.2056E+11,0.010860462
8.21236E+11,0.010868454
8.23221E+11,0.010876446
82457333333,0.010883106
8.25184E+11,0.010889766
8.24682E+11,0.010897758
8.25031E+11,0.010905084
8.2514E+11,0.010911078
8.25424E+11,0.010918404
8.25991E+11,0.010924398
82616571429,0.010930392
8.26318E+11,0.010936386
8.26209E+11,0.01094238
8.25991E+11,0.010948374
82592571429,0.010953702
8.25402E+11,0.010959696
8.25097E+11,0.01096569
8.24704E+11,0.010969686
8.24661E+11,0.010974348
8.24399E+11,0.010978344
8.23984E+11,0.010983006
8.22785E+11,0.010989
8.22915E+11,0.010994328
8.22348E+11,0.010999656
8.22021E+11,0.011004318
8.21694E+11,0.011009646
8.21432E+11,0.011014974
8.2117E+11,0.011020302
8.20909E+11,0.01102563
8.20603E+11,0.011030958
8.20429E+11,0.011037618
8.20211E+11,0.01104561
8.20145E+11,0.01105227
8.20527E+11,0.011057598
8.21738E+11,0.011062926
8.2141E+11,0.011070252
8.2165E+11,0.011078244
8.21716E+11,0.011086236
82182476190,0.011094894
8.23134E+11,0.011102886
8.23788E+11,0.01110888
8.24966E+11,0.011113542
8.26187E+11,0.011119536
8.2658E+11,0.01112553
8.26209E+11,0.011131524
82592571429,0.011136852
8.25337E+11,0.011142846
82556571429,0.011149506
8.25162E+11,0.011156166
8.25664E+11,0.01116216
8.25588E+11,0.01116882
82544571429,0.011174814
8.25457E+11,0.01118214
8.25609E+11,0.0111888
82568571429,0.011196126
8.25871E+11,0.01120212
8.26646E+11,0.01120878
8.2706E+11,0.011214774
8.2754E+11,0.011220768
8.27823E+11,0.011226762
8.27693E+11,0.011232756
8.27234E+11,0.011239416
8.27267E+11,0.01124541
8.26733E+11,0.01125207
8.27354E+11,0.011257398
8.27354E+11,0.011263392
8.27311E+11,0.011268054
8.27823E+11,0.011272716
8.27322E+11,0.011278044
8.27289E+11,0.011284038
8.27333E+11,0.011289366
8.2682E+11,0.01129536
8.26711E+11,0.011301354
82703809524,0.011306682
8.26853E+11,0.011312676
8.26591E+11,0.011319336
8.25751E+11,0.011326662
8.25206E+11,0.011333988
8.25184E+11,0.011341314
8.26318E+11,0.011347308
8.25871E+11,0.011353302
8.26711E+11,0.011361294
8.27104E+11,0.01136862
8.27496E+11,0.01137528
8.27802E+11,0.01138194
8.28107E+11,0.011389266
8.28609E+11,0.011395926
8.29045E+11,0.01140192
8.29372E+11,0.011407914
8.29416E+11,0.011413908
8.28881E+11,0.011419902
8289904762,0.011427228
8290666667,0.011433222
8290666667,0.011439216
8.28947E+11,0.01144521
8.28707E+11,0.011450538
8.28652E+11,0.011456532
8.28696E+11,0.011462526
8.28609E+11,0.011467854
8.28532E+11,0.011473848
8.28521E+11,0.011480508
8.28467E+11,0.011487168
8.285E+11,0.011493828
8.28598E+11,0.011499822
8.285E+11,0.011505816
8.28292E+11,0.01151181
8.2838E+11,0.011516472
8.28402E+11,0.011521134
8.28369E+11,0.011527128
82827047619,0.011533122
8.28063E+11,0.01153845
8.27365E+11,0.011543778
8.26798E+11,0.011549772
8.26558E+11,0.0115551
8.26297E+11,0.011561094
8.26078E+11,0.011567754
8.25664E+11,0.011573748
8.25228E+11,0.01157841
8.24791E+11,0.01158507
8.24442E+11,0.011592396
8.24115E+11,0.011599722
8.23744E+11,0.011609046
8.23548E+11,0.011619036
8.23614E+11,0.01162836
82409333333,0.011637684
8.24595E+11,0.011647008
8.24966E+11,0.011655666
8.25119E+11,0.011663658
8.25184E+11,0.01167165
8.24737E+11,0.011678976
8.23439E+11,0.0116883
8.21956E+11,0.011696292
8.20822E+11,0.011702952
8.20385E+11,0.011709612
8.18902E+11,0.011715606
8.16241E+11,0.011722266
8.11486E+11,0.011728926
8.07559E+11,0.01173492
8.0215E+11,0.011740914
7.95518E+11,0.011747574
7.88102E+11,0.011753568
77841714286,0.011760228
7.63235E+11,0.011772216
4.06899E+11,0.011788866
