Stress,Strain
6.2385E+11,0.000101232
6.34321E+11,0.00010656
6.46972E+11,0.000111888
6.56134E+11,0.000118548
6.62241E+11,0.000125874
6.72275E+11,0.000132534
6.88853E+11,0.000140526
7.08921E+11,0.00014652
7.2419E+11,0.000154512
7.3466E+11,0.000161838
7.49493E+11,0.000169164
7.67816E+11,0.000175824
7.79595E+11,0.00018315
7.90065E+11,0.000188478
8.06643E+11,0.000193806
8.22348E+11,0.000200466
8.31074E+11,0.000208458
8.38054E+11,0.00021645
84765142857,0.000225108
8.6292E+11,0.000234432
88342476190,0.00024309
90829142857,0.000250416
9.33594E+11,0.000257076
9.50172E+11,0.000264402
9.63696E+11,0.000271062
9.75475E+11,0.000277722
9.88127E+11,0.000283716
9.99906E+11,0.00028971
1.00994E+12,0.000295704
1.02303E+12,0.000301698
1.02608E+12,0.000307026
1.02455E+12,0.000311688
1.0335E+12,0.00031635
1.06055E+12,0.000321678
1.06665E+11,0.00032634
1.06513E+12,0.000330336
1.07014E+12,0.000334998
1.07298E+12,0.000340992
1.07887E+12,0.000345654
1.0828E+12,0.000350316
1.0865E+12,0.000354978
1.09217E+12,0.000362304
1.10461E+12,0.000370296
1.11159E+12,0.000376956
1.12206E+12,0.000384282
1.13515E+12,0.000391608
1.15085E+11,0.000398934
1.16917E+12,0.000405594
1.18532E+12,0.000411588
1.19709E+12,0.000418248
1.20669E+12,0.00042624
1.2176E+12,0.000433566
1.2333E+12,0.000438894
1.25032E+12,0.000444222
1.26646E+12,0.000451548
1.27431E+12,0.000458208
1.27191E+12,0.000465534
1.29525E+12,0.000471528
1.31576E+12,0.000478854
1.32536E+12,0.000485514
1.3319E+11,0.000492174
1.34455E+11,0.000498834
1.35938E+12,0.000503496
1.36724E+12,0.000508158
1.37683E+12,0.000514152
1.38905E+12,0.00051948
1.39559E+12,0.000526806
1.39494E+12,0.0005328
1.41348E+12,0.00053946
1.427E+12,0.000545454
1.4366E+12,0.000550782
1.4462E+12,0.000556776
1.45972E+12,0.000563436
1.47325E+12,0.000570096
1.48546E+12,0.00057609
1.49899E+12,0.00058275
1.50902E+12,0.000588744
1.51556E+12,0.000594738
1.516E+12,0.000601398
1.53999E+12,0.000607392
1.55308E+12,0.000613386
1.5557E+12,0.000620046
1.55788E+12,0.00062604
15748952381,0.000632034
1.58667E+11,0.000638694
1.59671E+12,0.000645354
1.60369E+12,0.000651348
1.60412E+12,0.000656676
1.6255E+12,0.000662004
1.63815E+12,0.000667998
1.64731E+12,0.000674658
1.65473E+12,0.000680652
1.65429E+12,0.000687312
1.66127E+12,0.000693306
1.67829E+12,0.000699966
1.6892E+12,0.000706626
1.70097E+12,0.000713952
1.71101E+12,0.000721278
1.71842E+12,0.000728604
1.73108E+12,0.000735264
1.74591E+12,0.000741258
1.75812E+12,0.000747918
1.76336E+12,0.000753246
1.76314E+12,0.000759906
1.77078E+12,0.000765234
1.78735E+12,0.000771894
1.78474E+12,0.000778554
1.79237E+12,0.000785214
1.79826E+12,0.000791208
1.81964E+12,0.000798534
1.8336E+12,0.000804528
1.83709E+12,0.000809856
1.83949E+12,0.00081585
1.8541E+12,0.000821178
1.85214E+12,0.000827172
1.85803E+12,0.000833832
1.86217E+12,0.000839826
1.86828E+12,0.000845154
1.889E+12,0.000849816
1.91038E+11,0.000855144
1.92216E+11,0.000859806
1.91649E+11,0.000865134
1.92063E+11,0.000869796
1.92041E+11,0.000875124
1.92216E+11,0.000881118
19198666667,0.00088578
1.92826E+11,0.000890442
1.9335E+11,0.000895104
1.93874E+11,0.000901098
1.94462E+11,0.000907092
1.95095E+11,0.00091242
1.95597E+11,0.000918414
1.96077E+11,0.000924408
1.96709E+11,0.000930402
1.98149E+11,0.000937062
1.97974E+11,0.000944388
1.98825E+11,0.000951048
2.01159E+11,0.000958374
2.02162E+11,0.0009657
2.01879E+11,0.000974358
2.03777E+11,0.000981684
2.05391E+11,0.000988344
2.067E+11,0.000997002
2.08008E+11,0.00100566
2.0923E+11,0.001013652
2.1019E+11,0.00102231
2.11586E+11,0.001030302
2.13069E+11,0.001038294
2.14203E+11,0.001046952
2.15774E+11,0.00105561
2.16995E+11,0.001063602
2.17999E+11,0.001071594
2.19874E+11,0.001079586
2.2162E+11,0.001087578
2.22361E+11,0.001094238
2.23321E+11,0.001101564
2.24542E+11,0.00110889
2253714286,0.00111555
2.26113E+11,0.001121544
2.25982E+11,0.00112887
2.26767E+11,0.001137528
2.28382E+11,0.001146186
2.2908E+11,0.001153512
2.30258E+11,0.001159506
2.32046E+11,0.0011655
2.33093E+11,0.001172826
2.32482E+11,0.001180152
2.32875E+11,0.001186146
2.33159E+11,0.001192806
2.34358E+11,0.001200132
2.3414E+11,0.001207458
23488190476,0.001214784
2.35536E+11,0.001221444
2.37238E+11,0.001227438
2.38198E+11,0.00123543
2.38852E+11,0.001243422
23985523810,0.001252746
2.41033E+11,0.001262736
2.42342E+11,0.001271394
2.44E+11,0.001280718
2.45527E+11,0.00128871
2.47141E+11,0.001296036
2.48929E+11,0.001302696
2.50326E+11,0.001309356
2.51067E+11,0.001316016
2.51852E+11,0.001322676
2.52681E+11,0.00132867
25250666667,0.001336662
2.53096E+11,0.001343988
2.53619E+11,0.001351314
2.54143E+11,0.001359306
2.5604E+11,0.001367298
2.57218E+11,0.00137529
2.57567E+11,0.001382616
2.57916E+11,0.001389276
2.60272E+11,0.001395936
26114476190,0.00140193
2.61799E+11,0.001406592
2.61734E+11,0.001411254
2.61974E+11,0.001415916
26225714286,0.00142191
26249714286,0.001427238
2.62672E+11,0.001433898
2.62846E+11,0.001439892
2.63021E+11,0.001445886
2.62857E+11,0.001452546
26360952381,0.00145854
2.64308E+11,0.0014652
26496190476,0.001471194
2.65529E+11,0.001477854
2.65856E+11,0.001484514
2.66227E+11,0.00149184
2.6662E+11,0.0014985
2.66925E+11,0.001506492
2.67645E+11,0.001513818
26814666667,0.00152181
26858285714,0.001529802
2.69237E+11,0.001537794
2.7131E+11,0.001546452
2.73054E+11,0.00155511
2.7384E+11,0.001563768
2.74887E+11,0.00157176
2.75978E+11,0.001580418
2.7685E+11,0.00158841
2.78028E+11,0.001596402
2.78857E+11,0.001604394
2.79947E+11,0.001612386
2.8178E+11,0.001619712
2.82914E+11,0.001627038
2.83438E+11,0.00163503
2.83568E+11,0.001642356
2.84092E+11,0.001649682
2.84877E+11,0.001657008
2.85357E+11,0.001663668
2.85641E+11,0.001670994
2.86317E+11,0.001676988
2.88018E+11,0.001683648
2.88847E+11,0.001689642
2.88564E+11,0.001696302
2.88913E+11,0.001702962
2.89109E+11,0.001709622
2.89414E+11,0.00171495
2.90941E+11,0.001720278
2.91377E+11,0.00172494
2.91072E+11,0.001730268
2.91377E+11,0.001735596
2.91486E+11,0.00174159
2.9153E+11,0.001747584
2.91356E+11,0.001752912
2.91574E+11,0.00175824
2.91683E+11,0.001763568
2.91857E+11,0.00177156
2.92512E+11,0.001779552
29281714286,0.001786878
2.93188E+11,0.001794204
2.93777E+11,0.00180153
2.95827E+11,0.00180819
29735428571,0.00181485
2.98358E+11,0.001820844
2.99056E+11,0.00182817
2.98859E+11,0.001836162
2.99252E+11,0.001844154
30005904762,0.00185148
30228380952,0.001858806
3.02938E+11,0.001866798
3.02851E+11,0.001874124
3.03331E+11,0.001880784
3.03767E+11,0.00188811
3.044E+11,0.00189477
3.05861E+11,0.00190143
3.05818E+11,0.00190809
3.06538E+11,0.001915416
3.07039E+11,0.001922742
3.07584E+11,0.001930734
3.08021E+11,0.00193806
3.08544E+11,0.001947384
3.09177E+11,0.00195471
3.09875E+11,0.00196137
3.11663E+11,0.00196803
3.12754E+11,0.00197469
3.13714E+11,0.001980684
31454285714,0.001986678
3.14325E+11,0.001992006
3.14674E+11,0.001998666
3.14783E+11,0.002005326
3.14805E+11,0.002011986
3.1511E+11,0.00201798
3.16724E+11,0.002021976
3.16113E+11,0.002025972
3.16375E+11,0.002029968
3.16528E+11,0.00203463
3.16048E+11,0.002039958
3.1607E+11,0.002045286
3.14586E+11,0.002051946
3.15132E+11,0.002059272
3.14848E+11,0.002065932
3.14935E+11,0.00207126
3.15492E+11,0.00207792
3.15382E+11,0.002085246
3.15961E+11,0.002092572
3.16637E+11,0.002100564
3.18382E+11,0.00210789
31951619048,0.002115216
3.20912E+11,0.002121876
3.22046E+11,0.002128536
3.2161E+11,0.00213453
3.22243E+11,0.002140524
3.22744E+11,0.002146518
3.23006E+11,0.002152512
3.23399E+11,0.00215784
32381333333,0.002163168
3.24031E+11,0.00216783
3.24271E+11,0.002172492
3.24598E+11,0.002177154
3.24708E+11,0.002182482
3.2438E+11,0.002188476
3.24577E+11,0.002193804
3.24653E+11,0.002198466
3.24686E+11,0.002203794
3.2474E+11,0.002208456
3.24773E+11,0.00221445
3.24686E+11,0.002221776
3.2474E+11,0.00222777
3.24893E+11,0.002233764
3.2498E+11,0.002240424
3.25689E+11,0.002247084
3.263E+11,0.00225441
3.27369E+11,0.002260404
3.27042E+11,0.00226773
3.27652E+11,0.002273724
3.27914E+11,0.002279718
3.28525E+11,0.002285712
3.29288E+11,0.002292372
3.31295E+11,0.0022977
3.3195E+11,0.002303028
3.31622E+11,0.002309022
3.32233E+11,0.002315016
3.32146E+11,0.002321676
3.32058E+11,0.002328336
33185142857,0.002334996
3.32091E+11,0.002341656
3.3231E+11,0.00234765
3.34218E+11,0.002354976
3.33782E+11,0.002361636
3.34371E+11,0.002368296
3.34698E+11,0.002374956
3.352E+11,0.002381616
3.36748E+11,0.002388942
3.36312E+11,0.002396268
3.36858E+11,0.002402928
3.37272E+11,0.002409588
3.38668E+11,0.002415582
3.38515E+11,0.002422242
3.39126E+11,0.002428902
3.39628E+11,0.002435562
3.39911E+11,0.002443554
3.40435E+11,0.002450214
3.41809E+11,0.002455542
3.42376E+11,0.002462202
3.42027E+11,0.002468862
3.42245E+11,0.002475522
3.42463E+11,0.002482848
3.42747E+11,0.002489508
34303047619,0.002496168
3.43292E+11,0.002502828
3.43663E+11,0.002508822
3.44994E+11,0.00251415
3.45866E+11,0.002519478
3.4543E+11,0.002525472
34597523810,0.002532132
3.46302E+11,0.002538126
34641142857,0.002542788
3.46717E+11,0.002546784
3.46302E+11,0.002551446
3.46455E+11,0.002556774
34653142857,0.002562768
3.46662E+11,0.00256743
3.46684E+11,0.002572758
3.46782E+11,0.002578086
3.46782E+11,0.002582748
3.46739E+11,0.002588076
3.46804E+11,0.00259407
3.46837E+11,0.00260073
3.46837E+11,0.002606724
3.47099E+11,0.002613384
3.48658E+11,0.002622042
3.48135E+11,0.002630034
3.48833E+11,0.00263736
35075238095,0.002646018
3.52497E+11,0.00265401
3.53239E+11,0.002661336
3.54199E+11,0.002669328
3.5542E+11,0.002677986
3.56075E+11,0.00268731
35707809524,0.002695968
3.58518E+11,0.002703294
3.59696E+11,0.002708622
3.60655E+11,0.002713284
3.6131E+11,0.002719278
3.61092E+11,0.002727936
3.61506E+11,0.002735928
36181142857,0.002744586
3.6216E+11,0.002752578
3.63622E+11,0.002761236
3.65105E+11,0.002769228
3.65978E+11,0.00277722
3.65825E+11,0.00278388
3.66676E+11,0.002789874
3.68421E+11,0.002796534
3.69075E+11,0.002803194
3.68574E+11,0.002811186
3.68814E+11,0.002818512
3688571429,0.002824506
3.69141E+11,0.002831166
3.70515E+11,0.002836494
3.70449E+11,0.002841822
3.7106E+11,0.002847816
3.71235E+11,0.00285381
3.71344E+11,0.002859804
3.70809E+11,0.00286713
3.71049E+11,0.002875122
3.71289E+11,0.002883114
37144190476,0.002891772
3.71507E+11,0.002901096
3.725E+11,0.002909088
37470285714,0.002917746
3.75663E+11,0.002926404
37653523810,0.002935728
3.78498E+11,0.002944386
38015619048,0.002952378
38107238095,0.002959704
3823809524,0.002966364
3.83559E+11,0.00297369
3.83995E+11,0.002981682
3.83995E+11,0.002989674
3.84475E+11,0.002996334
3.85064E+11,0.003002994
3.86831E+11,0.003008322
3.87529E+11,0.00301365
3.8742E+11,0.003018978
3.87856E+11,0.003024306
3.879E+11,0.003029634
38783428571,0.003034962
3.87376E+11,0.003040956
3.87507E+11,0.003046284
3.87071E+11,0.003051612
3.86853E+11,0.00305694
3.8718E+11,0.003062268
3.87136E+11,0.003068262
3.87071E+11,0.003074922
3.87093E+11,0.003082914
3.8718E+11,0.00309024
3.87147E+11,0.003097566
3.87256E+11,0.003104226
38751809524,0.003112218
3.89318E+11,0.00312021
3.91542E+11,0.00312687
3.93506E+11,0.003132864
3.93942E+11,0.003139524
3.93658E+11,0.003145518
39396380952,0.003151512
3.94029E+11,0.003157506
3.94313E+11,0.003164166
3.94422E+11,0.003171492
3.94324E+11,0.003179484
3.95251E+11,0.00318681
3.96865E+11,0.003194802
3.97476E+11,0.003204126
39758476190,0.003211452
3.9909E+11,0.00322011
3.98872E+11,0.003228102
3.99591E+11,0.00323676
4.01184E+11,0.003245418
4.01838E+11,0.00325341
4.02885E+11,0.003261402
40415047619,0.003268062
4.04848E+11,0.003275388
4.04718E+11,0.003282714
4.05372E+11,0.003289374
4.06986E+11,0.003296034
4.08033E+11,0.00330336
4.07444E+11,0.003310686
4.07662E+11,0.003318678
4.0799E+11,0.003325338
4.09255E+11,0.003331998
4.09865E+11,0.003338658
4.09734E+11,0.003345318
4.10389E+11,0.003351978
4.10782E+11,0.003358638
4.11261E+11,0.003365298
4.11872E+11,0.003370626
4.11916E+11,0.00337662
4.12134E+11,0.00338328
4.11567E+11,0.00338994
4.11763E+11,0.0033966
4.12058E+11,0.003402594
4.14272E+11,0.003408588
4.1449E+11,0.003414582
41433714286,0.003420576
4.1449E+11,0.003427236
4.14512E+11,0.003433896
4.14642E+11,0.003440556
4.14708E+11,0.003447882
4.15471E+11,0.003455208
4.16169E+11,0.003462534
4.17762E+11,0.00346986
41747809524,0.003478518
4.18307E+11,0.003487842
41998666667,0.003495834
4.20816E+11,0.00350316
4.20685E+11,0.00350982
4.2147E+11,0.003515814
4.22081E+11,0.00352314
4.22473E+11,0.003530466
4.22735E+11,0.003537126
4.23302E+11,0.003543786
4.24742E+11,0.003550446
4.24153E+11,0.003555774
4.24807E+11,0.003561102
42496000000,0.003567096
4.25047E+11,0.003574422
4.25462E+11,0.003580416
4.25571E+11,0.00358641
4.2592E+11,0.003594402
4.26334E+11,0.003601728
42650857143,0.003607722
4.26858E+11,0.003614382
4.27032E+11,0.003620376
4.27316E+11,0.00362637
4.27643E+11,0.00363303
4.27839E+11,0.003638358
4.28036E+11,0.003644352
42766476190,0.003650346
4.27948E+11,0.003657672
4.28079E+11,0.003663666
4.2821E+11,0.003670326
42834095238,0.003677652
4.28505E+11,0.003684978
4.28668E+11,0.003691638
4.29366E+11,0.003697632
4.29781E+11,0.003701628
4.3026E+11,0.003707622
4.30413E+11,0.00371295
4.305E+11,0.003718278
4.30566E+11,0.003724272
4.30348E+11,0.003731598
4.30337E+11,0.003738258
4.3038E+11,0.00374625
4.30402E+11,0.00375291
4.31373E+11,0.00375957
4.32158E+11,0.003766896
4.31875E+11,0.003773556
43220190476,0.003780216
4.32616E+11,0.003788208
4.34339E+11,0.003795534
4.35386E+11,0.00380286
4.36041E+11,0.003808854
4.35866E+11,0.003814182
4.36346E+11,0.003820176
4.36652E+11,0.003825504
4.36826E+11,0.003831498
4.37197E+11,0.003836826
4.3735E+11,0.003841488
4.37481E+11,0.00384615
4.37197E+11,0.003850812
4.37273E+11,0.003855474
4.37262E+11,0.003860802
4.37252E+11,0.00386613
4.37241E+11,0.003871458
4.37099E+11,0.003878118
4.37044E+11,0.003884778
4.37012E+11,0.003891438
4.37034E+11,0.003898098
4.37655E+11,0.003904092
4.38026E+11,0.003910086
4.38506E+11,0.003916746
4.38942E+11,0.003923406
4.39269E+11,0.0039294
4.39597E+11,0.003935394
4.39858E+11,0.003941388
4.40294E+11,0.00394605
4.40622E+11,0.003952044
44099238095,0.003958704
4.41363E+11,0.003963366
4.41494E+11,0.003968694
44171238095,0.003974022
4.41843E+11,0.00397935
4.41603E+11,0.003985344
4.4157E+11,0.003990672
4.4157E+11,0.003996
4.41538E+11,0.004001328
4.4156E+11,0.004007322
4.41734E+11,0.004013982
4.418E+11,0.004020642
4.42563E+11,0.004028634
4.43086E+11,0.004037292
4.43305E+11,0.004044618
44393714286,0.004051278
44576952381,0.004057938
4.46249E+11,0.004065264
4.45944E+11,0.004071924
4.46337E+11,0.004079916
4.46555E+11,0.004087242
44712190476,0.004094568
44891047619,0.004100562
4.49739E+11,0.004107222
44963047619,0.004113882
4.50001E+11,0.004119876
45050285714,0.004126536
4.50939E+11,0.004133196
45117904762,0.004139856
4.51812E+11,0.004144518
4.52248E+11,0.004150512
4.53622E+11,0.004156506
4.5323E+11,0.0041625
4534476190,0.004168494
4.53557E+11,0.004174488
4.53142E+11,0.004179816
4.53459E+11,0.004185144
4.53698E+11,0.004189806
4.53873E+11,0.004195134
4.54255E+11,0.004200462
4.53982E+11,0.004205124
4.54047E+11,0.004209786
4.54135E+11,0.004214448
4.5432E+11,0.00421911
4.54397E+11,0.004223106
4.54277E+11,0.004229766
4.53404E+11,0.004236426
4.53557E+11,0.004243086
4.53382E+11,0.004250412
4.54058E+11,0.004257738
4.54974E+11,0.004265064
4.55934E+11,0.00427239
4.57243E+11,0.004279716
45842095238,0.004287042
4.59206E+11,0.004293702
4.59163E+11,0.004301028
4.59926E+11,0.004309686
46049333333,0.004317678
4.613E+11,0.004326336
4.63176E+11,0.004333662
4.64136E+11,0.004341654
4.64921E+11,0.004350312
4.65837E+11,0.00435897
4.67103E+11,0.004366962
4.6815E+11,0.004374954
4.68673E+11,0.004382946
4.68695E+11,0.004390938
47020000000,0.004396932
4.70942E+11,0.004404924
4.71814E+11,0.004411584
4.73298E+11,0.004418244
4.74301E+11,0.00442557
4.73734E+11,0.004432896
4.74192E+11,0.00443889
4.74628E+11,0.004444884
4.75697E+11,0.004450878
4.75217E+11,0.004457538
4.75457E+11,0.004462866
4.75544E+11,0.004470192
4.75762E+11,0.004476186
4.76133E+11,0.004482846
4.76308E+11,0.004490172
4.76395E+11,0.004497498
4.767E+11,0.004504158
4.76493E+11,0.00451215
4.77267E+11,0.004520808
4.77726E+11,0.0045288
4.79013E+11,0.004534794
48014666667,0.004541454
4.81325E+11,0.004548114
4.81892E+11,0.004556106
4.81434E+11,0.004563432
4.81914E+11,0.004570758
4.82132E+11,0.00457875
4.82677E+11,0.004586742
4.8331E+11,0.0045954
4.84138E+11,0.004604058
4.85774E+11,0.00461205
4.85447E+11,0.004620042
4.86233E+11,0.004627368
4.87781E+11,0.004633362
4.89265E+11,0.004640688
4.90181E+11,0.004648014
4.89832E+11,0.004654674
4.90617E+11,0.004662666
4.92231E+11,0.004669326
4.9306E+11,0.004677318
4.9282E+11,0.004685976
4.93256E+11,0.004693302
4.93627E+11,0.004699962
4.94107E+11,0.004706622
4.95416E+11,0.00471195
4.95176E+11,0.004717944
4.95481E+11,0.004724604
4.95743E+11,0.004730598
4.9583E+11,0.004737258
4.9607E+11,0.004743252
4.96397E+11,0.00474858
4.96506E+11,0.004753908
4.96703E+11,0.004759902
49689904762,0.004766562
4.96637E+11,0.004772556
4.96714E+11,0.004779216
4.96877E+11,0.00478521
4.96932E+11,0.004790538
4.96943E+11,0.004796532
4.97074E+11,0.00480186
4.9727E+11,0.004807854
4.9775E+11,0.004813848
4.97859E+11,0.004821174
4.97434E+11,0.004827834
4.97499E+11,0.00483516
4976952381,0.004842486
4.98862E+11,0.004849812
4.98797E+11,0.004857804
4.99538E+11,0.004866462
5.01087E+11,0.00487512
5.02091E+11,0.004884444
5.03268E+11,0.004894434
5.03966E+11,0.004903092
5.04795E+11,0.004912416
50597333333,0.004920408
5.06977E+11,0.004929066
5.0798E+11,0.004936392
5.0894E+11,0.004943718
5.09812E+11,0.004949712
5.0966E+11,0.004957038
5.10183E+11,0.004963032
5.10467E+11,0.00496836
5.1051E+11,0.004974354
5.10619E+11,0.004979682
5.10423E+11,0.00498501
5.10543E+11,0.004990338
5.10554E+11,0.004995666
5.10499E+11,0.005000994
5.10489E+11,0.005006322
5.10489E+11,0.00501165
5.1051E+11,0.00501831
5.10456E+11,0.00502497
5.10379E+11,0.00503163
5.10434E+11,0.005038956
5.10554E+11,0.005046948
5.10816E+11,0.00505494
5.11732E+11,0.005062266
5.1243E+11,0.005069592
5.14E+11,0.005075586
5.13761E+11,0.005082246
5.14306E+11,0.005089572
51476380952,0.00509823
51500380952,0.005105556
5.15636E+11,0.005112882
5.17316E+11,0.005120208
5.18145E+11,0.005126868
5.18036E+11,0.00513486
5.18603E+11,0.005142186
5.19257E+11,0.005150178
5.21155E+11,0.00515817
5.22028E+11,0.005166162
5.21591E+11,0.005175486
5.22398E+11,0.005183478
5.23773E+11,0.005190804
5.23511E+11,0.00519813
5.24165E+11,0.005206122
52471047619,0.005212116
5.26346E+11,0.005219442
5.26914E+11,0.005226102
5.26826E+11,0.005232096
5.2735E+11,0.00523809
5.2735E+11,0.005247414
5.27415E+11,0.005254074
5.27612E+11,0.005260734
5.28615E+11,0.005267394
5.28222E+11,0.005273388
5.28681E+11,0.005278716
5.28899E+11,0.00528471
5.29182E+11,0.005290704
5.29597E+11,0.005296032
5.29684E+11,0.005300694
5.29226E+11,0.005306022
5.29226E+11,0.005310684
5.29237E+11,0.005315346
5.28332E+11,0.005320008
5.28026E+11,0.00532467
52745904762,0.005329998
5.26739E+11,0.00533466
5.26368E+11,0.005339988
5.25845E+11,0.005345316
5.25714E+11,0.005351976
5.2567E+11,0.005358636
5.26052E+11,0.005365296
5.2579E+11,0.005370624
52574666667,0.005375952
5.25921E+11,0.00538128
5.26052E+11,0.005388606
5.2687E+11,0.0053946
5.27415E+11,0.005399928
5.27677E+11,0.005405256
5.28048E+11,0.00541125
5.28244E+11,0.005418576
5.2831E+11,0.005425236
5.28048E+11,0.005433228
5.28408E+11,0.005439888
5.29291E+11,0.005445882
5.30709E+11,0.005451876
5.30622E+11,0.005459202
5.31211E+11,0.005467194
5.31691E+11,0.00547452
5.32323E+11,0.005482512
5.33894E+11,0.005489172
5.34679E+11,0.005495832
5.35421E+11,0.005501826
5.35224E+11,0.005507154
5.3577E+11,0.005512482
5.36162E+11,0.00551781
5.36359E+11,0.005523138
5.36664E+11,0.005529132
5.36642E+11,0.005533794
5.36326E+11,0.005539788
5.36402E+11,0.005546448
5.36468E+11,0.005553108
5.36424E+11,0.005559768
5.36391E+11,0.005566428
5.36435E+11,0.005573088
5.36555E+11,0.005579748
5.38518E+11,0.005586408
5.3926E+11,0.005592402
5.39216E+11,0.005599062
5.39718E+11,0.005605056
54011047619,0.00561105
5405904762,0.005616378
5.40918E+11,0.005621706
54126666667,0.005627034
5.41332E+11,0.005631696
5.4095E+11,0.005637024
5.40918E+11,0.005641686
5.40929E+11,0.005647014
5.40525E+11,0.005653674
54035047619,0.005659668
5.40721E+11,0.005665662
5.40689E+11,0.005671656
5.40579E+11,0.00567765
5.40492E+11,0.00568431
5.40667E+11,0.005691636
5.41921E+11,0.005698296
54170285714,0.005705622
5.42161E+11,0.00571428
5.42663E+11,0.005722272
5.4419E+11,0.005729598
5.44975E+11,0.005735592
54488761905,0.005742252
5.46633E+11,0.005748246
5.47331E+11,0.005754906
5.47069E+11,0.0057609
5.4744E+11,0.00576756
5.47614E+11,0.00577422
5.47963E+11,0.00578088
5.48247E+11,0.005788206
5.48443E+11,0.005796198
5.48814E+11,0.00580419
5.49076E+11,0.005811516
5.5069E+11,0.005818842
5.51344E+11,0.005825502
5.51235E+11,0.00583083
5.5202E+11,0.005835492
5.53351E+11,0.005841486
5.53024E+11,0.005846814
5.53111E+11,0.005851476
5.53046E+11,0.005856138
5.52784E+11,0.0058608
5.53089E+11,0.005866128
5.53155E+11,0.005870124
5.53089E+11,0.005874786
5.52991E+11,0.00588078
5.5298E+11,0.005886108
5.52969E+11,0.005892102
5.52958E+11,0.005898096
5.52882E+11,0.005902758
5.52882E+11,0.00590742
5.52958E+11,0.005912082
5.53111E+11,0.00591741
5.53656E+11,0.00592407
5.53198E+11,0.005931396
5.53253E+11,0.005938722
5.53406E+11,0.005946714
5.53646E+11,0.00595404
5.55358E+11,0.005962032
5.56405E+11,0.005970024
5.57277E+11,0.005978682
5.58324E+11,0.005986674
5.59459E+11,0.005995332
5.60593E+11,0.006003324
5.61771E+11,0.006011316
5.62251E+11,0.006019974
5.62338E+11,0.006027966
5.64214E+11,0.006036624
5.65348E+11,0.006045282
5.66439E+11,0.006055272
5.67311E+11,0.00606393
5.67159E+11,0.006071256
56888190476,0.006077916
5.70452E+11,0.006085242
5.71456E+11,0.006091236
5.71019E+11,0.006097896
5.7163E+11,0.006105222
5.71958E+11,0.006111882
5.7211E+11,0.006119874
57226285714,0.0061272
5.72525E+11,0.006131862
5.72765E+11,0.006137856
5.72874E+11,0.006144516
5.73223E+11,0.006151176
5.73288E+11,0.006158502
5.73026E+11,0.006164496
5.73223E+11,0.006171156
5.73506E+11,0.006178482
57405142857,0.00618381
5.74313E+11,0.006189804
5.74379E+11,0.00619713
5.74139E+11,0.006204456
5.74313E+11,0.006211782
5.74499E+11,0.006218442
5.74684E+11,0.006226434
57484761905,0.00623376
5.75666E+11,0.006241752
5.77389E+11,0.00625041
57834857143,0.006259068
57926476190,0.006266394
5.80574E+11,0.006275052
5.8149E+11,0.00628371
5.821E+11,0.006292368
5.8306E+11,0.006301026
5.84369E+11,0.006309018
5.85765E+11,0.00631701
58698666667,0.006325002
5.87641E+11,0.006332994
5.87576E+11,0.006340986
5.88208E+11,0.006348978
5.88754E+11,0.006356304
5.89233E+11,0.00636363
5.89822E+11,0.00637029
5.91393E+11,0.00637695
5.90978E+11,0.006381612
5.91371E+11,0.006387606
5.91371E+11,0.0063936
5.90902E+11,0.006399594
5.91109E+11,0.006404922
5.91262E+11,0.00641025
5.91218E+11,0.006415578
5.91033E+11,0.006420906
5.90957E+11,0.006426234
5.90793E+11,0.006431562
5.90302E+11,0.00643689
5.90597E+11,0.006442218
5.90477E+11,0.006448212
5.90324E+11,0.00645354
5.90237E+11,0.006459534
5.9015E+11,0.006464862
5.89986E+11,0.00647019
5.89844E+11,0.006476184
5.89866E+11,0.006482844
5.89833E+11,0.00649017
5.89713E+11,0.006498162
5.89746E+11,0.00650682
5.90346E+11,0.00651681
5.92091E+11,0.006526134
5.934E+11,0.00653679
5.94621E+11,0.006547446
5.95275E+11,0.006556104
5.96235E+11,0.006564762
5.98111E+11,0.006572754
5.99725E+11,0.006581412
6.00467E+11,0.006588738
6.01296E+11,0.006596064
6.01165E+11,0.006602724
6.01514E+11,0.006609384
6.01841E+11,0.006615378
6.02016E+11,0.006622704
6.02278E+11,0.00663003
6.02692E+11,0.006637356
6.02888E+11,0.006644682
60301904762,0.006652008
6.0339E+11,0.006658668
6.03652E+11,0.006665994
6.03979E+11,0.006672654
6.04328E+11,0.006678648
6.04655E+11,0.006685974
6.04808E+11,0.006691302
6.05222E+11,0.006697296
6.05549E+11,0.00670329
6.05789E+11,0.006708618
6.06269E+11,0.006714612
6.06553E+11,0.006720606
6.06684E+11,0.006725934
6.06684E+11,0.006731928
6.06422E+11,0.006737256
6.06553E+11,0.00674325
6.06607E+11,0.00674991
6.06542E+11,0.006757236
6.06531E+11,0.00676323
6.06575E+11,0.006769224
6.06771E+11,0.006775884
6.07622E+11,0.006784542
6.07687E+11,0.006791202
6.07927E+11,0.006798528
6.08385E+11,0.006805854
6.0941E+11,0.006814512
6.09105E+11,0.00682317
6.09803E+11,0.006832494
6.11548E+11,0.00683982
6.13075E+11,0.00684648
6.14471E+11,0.00685314
6.15256E+11,0.006860466
6.14842E+11,0.006867792
6.15082E+11,0.006875118
6.15387E+11,0.006881778
6.16565E+11,0.006888438
6.17132E+11,0.006894432
6.1687E+11,0.006899094
6.17154E+11,0.006905088
6.17328E+11,0.00691308
6.17525E+11,0.006920406
6.17874E+11,0.006927732
6.18201E+11,0.00693639
6.18572E+11,0.006944382
6.18921E+11,0.006951042
6.19292E+11,0.006957036
6.19706E+11,0.00696303
6.20033E+11,0.006968358
6.20491E+11,0.006972354
6.20753E+11,0.006977016
62068761905,0.006981678
6.19488E+11,0.006985674
6.18572E+11,0.00698967
6.18768E+11,0.006994998
6.18157E+11,0.006998994
6.17634E+11,0.00700299
61730666667,0.007006986
6.16958E+11,0.007012314
6.16412E+11,0.007018974
6.14951E+11,0.0070263
6.15518E+11,0.00703296
6.15431E+11,0.007040286
6.16107E+11,0.007047612
6.16172E+11,0.007055604
6.17045E+11,0.007064262
6.17634E+11,0.00707292
6.18245E+11,0.007080246
62001142857,0.007086906
6.21451E+11,0.007094898
6.2228E+11,0.007100892
6.21974E+11,0.007106886
6.22411E+11,0.00711288
6.22738E+11,0.007118208
6.23174E+11,0.007124868
6.23545E+11,0.007131528
6.24025E+11,0.00713619
6.24352E+11,0.007140852
6.24461E+11,0.007145514
6.24418E+11,0.007150176
6.24199E+11,0.007155504
6.24232E+11,0.007160832
62418857143,0.00716616
6.24232E+11,0.007171488
6.24167E+11,0.007177482
6.24025E+11,0.00718281
6.23905E+11,0.007188138
6.2385E+11,0.007195464
6.2385E+11,0.00720279
6.23916E+11,0.007208784
6.24134E+11,0.007214778
6.24854E+11,0.007222104
6.25334E+11,0.007230096
6.25835E+11,0.007236756
6.26163E+11,0.007243416
6.26926E+11,0.007248744
6.28867E+11,0.007254072
6.28322E+11,0.007258734
6.28758E+11,0.007264728
6.28867E+11,0.007270722
6.28649E+11,0.007276716
62836571429,0.00728271
6.28617E+11,0.00728937
6.2878E+11,0.007294698
6.28835E+11,0.007300026
6.29413E+11,0.00730602
6.29631E+11,0.007310682
6.29631E+11,0.007315344
6.29304E+11,0.007320672
6.29533E+11,0.007326666
6.29554E+11,0.007333326
6.29413E+11,0.007339986
6.29478E+11,0.007346646
6.30612E+11,0.007354638
6.30962E+11,0.007361298
6.30591E+11,0.007367292
6.30722E+11,0.007374618
6.30656E+11,0.007381944
6.30962E+11,0.007389936
6.32619E+11,0.007396596
6.32161E+11,0.007403256
6.32881E+11,0.007409916
6.33448E+11,0.00741591
63381904762,0.00742257
63445142857,0.007429896
6.34648E+11,0.007436556
6.34735E+11,0.007443882
6.35041E+11,0.007449876
6.36153E+11,0.007457202
6.36982E+11,0.007464528
6.36698E+11,0.007470522
6.37222E+11,0.007477182
6.37767E+11,0.007485174
6.38182E+11,0.007491168
6.38901E+11,0.007496496
6.39425E+11,0.007501824
6399047619,0.007508484
64014476190,0.007514478
6.4021E+11,0.007520472
6.40537E+11,0.0075258
6.40843E+11,0.007530462
6.41105E+11,0.007535124
6.4141E+11,0.007540452
6.40897E+11,0.007545114
6.40788E+11,0.00754911
6.40799E+11,0.007555104
6.40254E+11,0.007559766
6.4021E+11,0.00756576
64050476190,0.00757242
6.40396E+11,0.007578414
6.4033E+11,0.007583742
6.40406E+11,0.007591734
6.41061E+11,0.007599726
6.41562E+11,0.007607718
6.41977E+11,0.00761571
6.42675E+11,0.00762237
6.44965E+11,0.007630362
6.46187E+11,0.00763902
6.46623E+11,0.00764901
6.46536E+11,0.007657668
6.47343E+11,0.007667658
64989523810,0.007676982
6.50593E+11,0.007684308
6.51422E+11,0.007691634
6.52993E+11,0.007698294
65395238095,0.007704288
6.53669E+11,0.007711614
6.54301E+11,0.00771894
6.54563E+11,0.0077256
6.54781E+11,0.007733592
6.55174E+11,0.007740918
6.5561E+11,0.007748244
6.56155E+11,0.00775557
6.56635E+11,0.007763562
6.57137E+11,0.007770888
65757333333,0.007777548
6.58206E+11,0.007784874
6.58751E+11,0.0077922
6.591E+11,0.007798194
6.59624E+11,0.007804188
6600380952,0.007810848
6.603E+11,0.007818174
6.60409E+11,0.007824834
6.60431E+11,0.00783216
6.60333E+11,0.007839486
6.61761E+11,0.007847478
6.61478E+11,0.007854804
6.62023E+11,0.007861464
6.62263E+11,0.007867458
6.62634E+11,0.007873452
6.63005E+11,0.007880778
66322285714,0.00788877
6.63463E+11,0.007899426
6.63681E+11,0.00790875
66413904762,0.007918074
66573142857,0.007926732
6.67127E+11,0.007936056
6.68785E+11,0.007944714
66978857143,0.007951374
6.69527E+11,0.007959366
6.70247E+11,0.007967358
6.70618E+11,0.007974684
6.71294E+11,0.00798201
6.73017E+11,0.007989336
6.73671E+11,0.007996662
6.74587E+11,0.008003322
6.74369E+11,0.00800865
6.74827E+11,0.008013978
6.75133E+11,0.008019972
6.75176E+11,0.008026632
6.75285E+11,0.00803196
6.75154E+11,0.00803862
6.75351E+11,0.008043948
6.75329E+11,0.00804861
6.75362E+11,0.008054604
6.75253E+11,0.008061264
6.75285E+11,0.008067258
6.7534E+11,0.008074584
6.7534E+11,0.008081244
6.75209E+11,0.008087238
6.75296E+11,0.008092566
6.75547E+11,0.008096562
6.76245E+11,0.00810189
6.76682E+11,0.008107218
6.76638E+11,0.008112546
67599428571,0.00811854
6.75962E+11,0.0081252
6.75046E+11,0.008132526
6.74958E+11,0.008137854
6.75133E+11,0.008143848
6.75482E+11,0.008150508
67587428571,0.008157834
6761142857,0.008166492
6.76398E+11,0.008174484
67703047619,0.008182476
6.78296E+11,0.008190468
6.78186E+11,0.008197794
6.79866E+11,0.008206452
6.80477E+11,0.008215776
6.80564E+11,0.008225766
6.82527E+11,0.008235756
6.83443E+11,0.008244414
6.84142E+11,0.008253072
6.85712E+11,0.00826173
6.87108E+11,0.008269722
6.87981E+11,0.008277714
6.88984E+11,0.008285706
6.88678E+11,0.008293698
6.89224E+11,0.008300358
6.89791E+11,0.008307018
6.91209E+11,0.008313678
6908380952,0.008319672
6.91165E+11,0.008325666
6.91405E+11,0.00833166
6.91383E+11,0.008337654
6.90991E+11,0.008344314
6.91133E+11,0.008349642
6.91165E+11,0.00835497
69115428571,0.008360298
6.91198E+11,0.008365626
6.9122E+11,0.008370954
6.91198E+11,0.008375616
6.9122E+11,0.008380278
6.91242E+11,0.008384274
6.91231E+11,0.008389602
69115428571,0.008396262
6.90533E+11,0.008402922
6.9038E+11,0.008409582
6.90293E+11,0.008416242
6.90587E+11,0.008423568
6.90554E+11,0.00843156
6.90729E+11,0.008440218
6.92605E+11,0.00844821
6.93696E+11,0.008456202
6.94568E+11,0.008462196
6.95441E+11,0.008468856
6.9531E+11,0.008475516
6.95855E+11,0.008482176
6.964E+11,0.008490834
6.96837E+11,0.008500158
6.9712E+11,0.00850815
6.97513E+11,0.008515476
6.98211E+11,0.00852147
7.0037E+11,0.008527464
7.00763E+11,0.008533458
7.0037E+11,0.008540118
7.00239E+11,0.008547444
6.99934E+11,0.008556102
6.99901E+11,0.008563428
7.00294E+11,0.008572086
70054476190,0.008580078
7.01614E+11,0.008587404
7.03075E+11,0.008594064
7.03817E+11,0.008598726
70464571429,0.008604054
7.04362E+11,0.008610048
7.04558E+11,0.008615376
7.0458E+11,0.00862137
7.04024E+11,0.008626698
7.04187E+11,0.008632026
7.04242E+11,0.00863802
7.03817E+11,0.008642682
7.04035E+11,0.008648676
70392571429,0.00865467
7.03762E+11,0.008660664
70348952381,0.008666658
7.02922E+11,0.008673318
7.02901E+11,0.008678646
7.02835E+11,0.00868464
7.03119E+11,0.008691966
7.03097E+11,0.008698626
7.02955E+11,0.008706618
7.03021E+11,0.008713944
7.03282E+11,0.008720604
7.03522E+11,0.00872793
7.04362E+11,0.00873459
7.05126E+11,0.008740584
70643428571,0.008746578
70599809524,0.00875457
7.0626E+11,0.008762562
7.06391E+11,0.008769888
7.06696E+11,0.008775216
7.07089E+11,0.00878121
7.07743E+11,0.008787204
7.08223E+11,0.008793864
7.08746E+11,0.008799858
7.09205E+11,0.008805186
7.09401E+11,0.008809848
70937904762,0.00881451
7.09041E+11,0.008819838
7.09237E+11,0.008825166
70925904762,0.00883116
7.09128E+11,0.008837154
7.08485E+11,0.008842482
7.08506E+11,0.008847144
7.08812E+11,0.008851806
7.08757E+11,0.008855802
7.08605E+11,0.008860464
7.08474E+11,0.008866458
7.08321E+11,0.008872452
7.07765E+11,0.008879112
7.07438E+11,0.008885106
7.07263E+11,0.0088911
7.07285E+11,0.00889776
7.07569E+11,0.008905086
7.07525E+11,0.008911746
7.08114E+11,0.008919072
7.10012E+11,0.008925732
7.10361E+11,0.008931726
71029523810,0.00893772
7.10775E+11,0.008943714
7.1108E+11,0.008949042
7.11255E+11,0.00895437
7.11299E+11,0.008959698
7.1156E+11,0.008965026
7.12716E+11,0.008970354
7.11626E+11,0.008976348
71164761905,0.008982342
7.11615E+11,0.008989002
7.11626E+11,0.008996328
7.11866E+11,0.00900432
7.12018E+11,0.009011646
7.12542E+11,0.009018306
7.12934E+11,0.009024966
7.13393E+11,0.009032292
7.14985E+11,0.009039618
7.15814E+11,0.00904761
7.1553E+11,0.00905427
7.15858E+11,0.009061596
7.16294E+11,0.009068922
71662095238,0.009076248
7.18039E+11,0.009083574
7.18955E+11,0.009090234
7.19697E+11,0.009096894
7.19348E+11,0.009103554
7.19718E+11,0.00911088
72000190476,0.009118206
7.20373E+11,0.009125532
7.20874E+11,0.00913086
7.21267E+11,0.009136854
7.21442E+11,0.009143514
7.21442E+11,0.009150174
7.21147E+11,0.009154836
7.21496E+11,0.009159498
7.21682E+11,0.009164826
7.21758E+11,0.009170154
7.22183E+11,0.009175482
7.21823E+11,0.009180144
7.21856E+11,0.009184806
7.21867E+11,0.0091908
7.21812E+11,0.009196794
7.21671E+11,0.009202122
7.2166E+11,0.009208116
7.21692E+11,0.00921411
7.21769E+11,0.009219438
7.22183E+11,0.009224766
7.21878E+11,0.009228762
7.21878E+11,0.009233424
7.21976E+11,0.009239418
7.22085E+11,0.009246078
72203047619,0.009252738
7.21889E+11,0.009258732
7.21812E+11,0.009265392
7.21932E+11,0.009272052
7.2202E+11,0.009279378
7.23034E+11,0.009288702
7.24452E+11,0.009296028
7.24365E+11,0.00930402
7.26066E+11,0.009312012
7.27287E+11,0.00932067
7.28204E+11,0.009328662
7.27898E+11,0.00933732
7.28814E+11,0.00934398
7.31083E+11,0.009351306
73221714286,0.009357966
7.32784E+11,0.00936396
7.32719E+11,0.009371286
7.32959E+11,0.009379278
7.3309E+11,0.00938727
7.33112E+11,0.009395928
7.33504E+11,0.009403254
7.35882E+11,0.009411246
7.36885E+11,0.009418572
7.36623E+11,0.009426564
7.37496E+11,0.009433224
7.37976E+11,0.009439218
73858666667,0.009445878
7.39241E+11,0.009452538
7.39525E+11,0.009459198
7.3959E+11,0.009465858
73969904762,0.00947385
7.39437E+11,0.009481176
7.3971E+11,0.009488502
74037523810,0.009495162
7.40921E+11,0.009501822
7.41335E+11,0.009508482
7.42077E+11,0.009515142
7.42513E+11,0.009522468
7.43015E+11,0.009529128
7.43429E+11,0.009535788
7.43429E+11,0.009541782
7.43734E+11,0.009548442
7.43843E+11,0.009555102
7.43702E+11,0.009562428
7.4428E+11,0.009569088
7.44585E+11,0.009575748
7.44934E+11,0.00958374
74515238095,0.009592398
7.45545E+11,0.00960039
7.47094E+11,0.009607716
7.4801E+11,0.009614376
7.47661E+11,0.009622368
7.48446E+11,0.009629694
7.48948E+11,0.009637686
7.5054E+11,0.00964368
7.51369E+11,0.00965034
7.51151E+11,0.009657666
7.5174E+11,0.009665658
7.52263E+11,0.009674316
7.52809E+11,0.009682974
7.53332E+11,0.0096903
7.54096E+11,0.009695628
7.55688E+11,0.009701622
75533904762,0.009707616
7.55819E+11,0.009712944
7.56037E+11,0.009718272
7.5619E+11,0.0097236
7.56102E+11,0.00973026
7.55917E+11,0.009737586
7.55862E+11,0.00974358
7.55426E+11,0.009749574
7.55841E+11,0.009754902
7.55862E+11,0.00976023
7.55819E+11,0.009766224
75577523810,0.009771552
7.55721E+11,0.009777546
7.55808E+11,0.00978354
7.5595E+11,0.009789534
7.55939E+11,0.009796194
7.55873E+11,0.009802854
7.55884E+11,0.009809514
7.55993E+11,0.009816174
7.56004E+11,0.009822834
7.56201E+11,0.00983016
7.5667E+11,0.009837486
7.5691E+11,0.009844812
7.57433E+11,0.009852804
7.59134E+11,0.009860796
7.60007E+11,0.00987012
7.59767E+11,0.009878778
7.60334E+11,0.009887436
7.60814E+11,0.00989676
7.62363E+11,0.009905418
7.63148E+11,0.00991341
7.63083E+11,0.009921402
76369333333,0.009929394
7.64348E+11,0.009938052
7.65853E+11,0.00994671
7.66463E+11,0.009954036
7.67947E+11,0.009961362
7.69517E+11,0.009967356
7.70346E+11,0.009974682
7.70085E+11,0.009982008
7.70412E+11,0.009988668
7.70499E+11,0.009995994
7.70608E+11,0.010002654
7.70913E+11,0.010009312
7.7075E+11,0.010015308
7.71393E+11,0.010021302
7.71568E+11,0.010026628
7.71153E+11,0.010031292
7.71306E+11,0.010037286
7.71481E+11,0.010043278
7.71502E+11,0.010049272
7.71459E+11,0.010055932
7.71568E+11,0.010062594
7.71546E+11,0.010069254
7.71502E+11,0.010075248
7.7171E+11,0.010081242
77185142857,0.010087902
7.72506E+11,0.010094562
7.72898E+11,0.010101886
7.72746E+11,0.010109214
7.72375E+11,0.010117206
7.72615E+11,0.01012453
7.7292E+11,0.010133188
7.74622E+11,0.010142514
7.75494E+11,0.01015317
7.76541E+11,0.010161826
7.78112E+11,0.010170484
7.79551E+11,0.010177812
7.80817E+11,0.010185136
7.81514E+11,0.010191798
7.81318E+11,0.010199788
7.8158E+11,0.010207116
7.81711E+11,0.010213776
7.81842E+11,0.01021977
7.81667E+11,0.01022643
7.81907E+11,0.010232424
7.81983E+11,0.010238418
7.82005E+11,0.010245078
7.82027E+11,0.010252404
7.82049E+11,0.010259064
7.82027E+11,0.010265058
7.82082E+11,0.010270386
7.82125E+11,0.010275046
7.82692E+11,0.010279042
7.82932E+11,0.010285702
7.82867E+11,0.01029303
7.82387E+11,0.010299024
7.82409E+11,0.010303686
78199428571,0.010309014
7.81863E+11,0.010313676
7.81449E+11,0.010318338
7.79944E+11,0.010322334
7.80293E+11,0.010326994
7.79835E+11,0.010331656
7.79508E+11,0.01033632
77909333333,0.010341646
7.78766E+11,0.010346976
7.78264E+11,0.010353636
7.78046E+11,0.010361628
7.77894E+11,0.010370286
7.77981E+11,0.010378278
7.78362E+11,0.010384938
7.80511E+11,0.010391596
7.81471E+11,0.010397592
7.81144E+11,0.01040425
78179809524,0.010410246
7.82169E+11,0.010417572
7.82387E+11,0.010424232
7.82823E+11,0.010430226
7.83216E+11,0.010438216
7.83543E+11,0.010445544
7.83848E+11,0.010452202
7.84285E+11,0.010458862
7.85484E+11,0.010465524
7.85223E+11,0.010471516
7.85834E+11,0.010478178
7.86204E+11,0.010483506
7.86684E+11,0.010487502
7.87142E+11,0.01049416
7874476190,0.010500156
7.876E+11,0.010506814
7.87491E+11,0.010512808
7.87219E+11,0.010518138
7.87404E+11,0.010524132
7.87524E+11,0.010530124
7.87502E+11,0.010536118
7.87458E+11,0.010542112
7.87426E+11,0.010550106
7.87426E+11,0.010558098
7.87535E+11,0.010564758
7.87818E+11,0.010571416
7.89629E+11,0.010578744
7.89411E+11,0.010584738
7.89847E+11,0.010591398
7.90109E+11,0.01059606
7.90283E+11,0.010601388
7.90283E+11,0.010606716
7.90076E+11,0.010612044
7.90163E+11,0.01061737
7901523810,0.010622032
7.90098E+11,0.010626696
7.90043E+11,0.010631358
7.89967E+11,0.010637352
7.89803E+11,0.010643346
7.89553E+11,0.010650006
7.88822E+11,0.010656
7.88822E+11,0.01066266
7.90022E+11,0.01066932
7.89378E+11,0.010676646
7.90262E+11,0.010683306
7.90589E+11,0.010689966
7.90741E+11,0.010696626
7.90894E+11,0.010703284
7.90621E+11,0.010709944
7.90916E+11,0.010716606
7.92508E+11,0.01072393
7.9325E+11,0.01073059
7.93054E+11,0.010737918
7.93599E+11,0.010745242
7.94079E+11,0.01075257
7.94384E+11,0.010759894
7.94951E+11,0.010767222
7.96434E+11,0.010774546
7.97002E+11,0.01078054
7.96936E+11,0.010786534
7.97263E+11,0.01079253
7.9746E+11,0.01079719
79787428571,0.01080252
7.98136E+11,0.010807846
7.98441E+11,0.01081384
7.98485E+11,0.010819836
7.98136E+11,0.01082583
7981904762,0.01083049
7.98376E+11,0.010836486
7.98474E+11,0.010841814
7.98485E+11,0.01084714
7.98529E+11,0.01085247
7.98496E+11,0.010858464
7.98561E+11,0.010863126
7.9866E+11,0.010868452
7.98736E+11,0.010873782
7.98823E+11,0.010879108
7.98954E+11,0.010884438
7.9891E+11,0.010890432
79886666667,0.010895758
79898666667,0.010901088
7.99085E+11,0.010907746
7.99074E+11,0.010915074
7.99041E+11,0.010921734
7.99096E+11,0.010928394
8.00361E+11,0.010936386
8.01146E+11,0.010945044
8.01888E+11,0.0109537
8.02804E+11,0.010961694
8.03415E+11,0.010969686
8035238095,0.010977678
8.05465E+11,0.010985004
8.05945E+11,0.010992996
80598857143,0.011001654
8.07734E+11,0.011009646
8.08606E+11,0.01101697
8.09915E+11,0.011024962
8.107E+11,0.011032956
8.10177E+11,0.011040282
8.10853E+11,0.011048272
8.11115E+11,0.0110556
81168190476,0.01106226
8.12227E+11,0.011069586
8.12751E+11,0.011076246
8.13143E+11,0.01108224
8.13601E+11,0.011087566
8.14125E+11,0.011093562
8.14234E+11,0.01110022
8.1419E+11,0.01110688
8.13776E+11,0.011114208
8.14016E+11,0.011120202
8.15281E+11,0.011126862
8.16066E+11,0.01113352
8.15543E+11,0.011140848
8.15521E+11,0.011146174
8.15281E+11,0.011152834
8.15194E+11,0.011158828
81549904762,0.011165488
8.15695E+11,0.01117215
8.15652E+11,0.01117881
8.15663E+11,0.011186134
8.15728E+11,0.011193462
8.16066E+11,0.011201454
8.17724E+11,0.011209444
8.18771E+11,0.011215438
81844380952,0.0112221
81912000000,0.011230758
8.19643E+11,0.01123875
8.20996E+11,0.011248074
8.20865E+11,0.011256066
8.21672E+11,0.011265388
8236571429,0.011274714
8.2453E+11,0.011282706
8.25577E+11,0.011290696
82684190476,0.011298688
8.28107E+11,0.011306016
8.28936E+11,0.01131334
8.28718E+11,0.011320668
8.29568E+11,0.011327992
8.29939E+11,0.011334652
8.30245E+11,0.01134198
8.30375E+11,0.011349304
8.30441E+11,0.011355298
8.30768E+11,0.011361292
8.31183E+11,0.011367288
8.31553E+11,0.011373946
8.31619E+11,0.011380606
8.31553E+11,0.011387934
8.31379E+11,0.011394592
8.31608E+11,0.011400588
83181523810,0.011407246
8.31924E+11,0.011414574
8.32622E+11,0.011421234
8.32753E+11,0.01142656
8.32382E+11,0.011431224
83256761905,0.011435886
8.32666E+11,0.011439882
8.3272E+11,0.011445208
8.3259E+11,0.011450538
8.31902E+11,0.011456532
8.31379E+11,0.011463856
8.30834E+11,0.011470516
8.30572E+11,0.011477844
8.3055E+11,0.011485168
8.31008E+11,0.011492496
8.30888E+11,0.011501818
8.31422E+11,0.011510478
8.31924E+11,0.011520466
8.32557E+11,0.011529124
8.34171E+11,0.01153845
8.35393E+11,0.011547108
8.36658E+11,0.0115551
8.37748E+11,0.011563092
8.3849E+11,0.01157175
8.38424E+11,0.011580408
8.39188E+11,0.0115884
8.41195E+11,0.011595724
8.41806E+11,0.011603052
8.41653E+11,0.011609712
8.42285E+11,0.01161637
8.4222E+11,0.011623698
8.42613E+11,0.011631022
8.42809E+11,0.011637682
8.42602E+11,0.011644344
84331047619,0.011650336
84359428571,0.011657664
8.43572E+11,0.011663658
8.43289E+11,0.011670982
8.4354E+11,0.011676976
8.43616E+11,0.011683636
8.43812E+11,0.01168963
8.43954E+11,0.01169629
8.44096E+11,0.011702952
8.44816E+11,0.011709612
8.45012E+11,0.011716272
8.45492E+11,0.01172293
8.45928E+11,0.01172959
8.46015E+11,0.011736918
8.46212E+11,0.011744242
8.45863E+11,0.011750904
8.4619E+11,0.011758228
8.46953E+11,0.011764888
8.47215E+11,0.011771548
8.47717E+11,0.01177954
8.48109E+11,0.011786868
8.48306E+11,0.01179486
8.4872E+11,0.011803518
8.49222E+11,0.01181284
8.5101E+11,0.011820834
8.51796E+11,0.011827492
8.52668E+11,0.01183482
8.52363E+11,0.01184148
8.52952E+11,0.011847474
8.53279E+11,0.011854134
8.53214E+11,0.011860128
8.53454E+11,0.011866122
8.53126E+11,0.011871448
8.53225E+11,0.011878776
8.53105E+11,0.0118861
8.53115E+11,0.011894758
8.52952E+11,0.01190275
8.5281E+11,0.01190941
8.52908E+11,0.011916072
85484952381,0.011924062
8.55722E+11,0.01193139
8.54959E+11,0.011938714
8.55177E+11,0.011945376
8.55046E+11,0.011950038
8.55308E+11,0.011954034
85576571429,0.01195803
8.5594E+11,0.011962026
85441333333,0.011966688
8.52974E+11,0.011972014
8.52232E+11,0.011977344
8.52407E+11,0.01198134
85194857143,0.011986666
8.51556E+11,0.01199266
8.51142E+11,0.01199799
8.50814E+11,0.012003316
8.50291E+11,0.01200798
8.50051E+11,0.012013972
8.49745E+11,0.012019966
8.49396E+11,0.01202596
8.49266E+11,0.012031954
8.49135E+11,0.012039282
8.49527E+11,0.012045942
8.49593E+11,0.012052602
8.50203E+11,0.012058596
8.50531E+11,0.01206592
8.50967E+11,0.012073912
8.51142E+11,0.01208257
8.5149E+11,0.012089898
85214476190,0.012096558
8.5389E+11,0.012101218
8.54632E+11,0.012106548
8.54304E+11,0.012111874
8.54697E+11,0.012117868
8.54719E+11,0.012123198
8.54501E+11,0.012129192
8.54337E+11,0.012135186
8.54402E+11,0.012141846
8.53955E+11,0.012148506
8.54326E+11,0.0121545
8.54326E+11,0.01216116
8.54261E+11,0.012167818
8.5425E+11,0.012173814
8.54402E+11,0.012181138
8.54588E+11,0.012186468
8.54784E+11,0.012193126
85556952381,0.01219912
8.55984E+11,0.01220445
8.56355E+11,0.01221111
8.5666E+11,0.012216436
8.56573E+11,0.012221766
8.56257E+11,0.01222776
8.56431E+11,0.012233754
8.56529E+11,0.012239748
8.56518E+11,0.012245074
8.5642E+11,0.012250404
8.56169E+11,0.012255066
8.55526E+11,0.01226106
8.55548E+11,0.012267054
8.55417E+11,0.01227238
8.55657E+11,0.01227771
8.55591E+11,0.012283036
8.5558E+11,0.01228903
8.55515E+11,0.01229436
8.55537E+11,0.012300354
8.55406E+11,0.01230768
8.55275E+11,0.012315672
8.55384E+11,0.012323664
8.56158E+11,0.012330324
8.55984E+11,0.012337648
8.56617E+11,0.012343642
85692190476,0.012349636
8.57402E+11,0.012355632
8.57969E+11,0.01236229
8.58143E+11,0.012369618
8.58209E+11,0.012376278
8.58209E+11,0.012382938
85807809524,0.012388932
8.58209E+11,0.012394926
8.5834E+11,0.01240225
8.58492E+11,0.01240891
8.58503E+11,0.012415572
8.58525E+11,0.012422232
8.58721E+11,0.012428892
8.58972E+11,0.012434886
8.59081E+11,0.01244221
8.59561E+11,0.012448872
8.59289E+11,0.012454864
8.59496E+11,0.012460858
8.59659E+11,0.012466852
8.59834E+11,0.012472846
8.60565E+11,0.012479506
8.60761E+11,0.0124855
8.61001E+11,0.01249083
8.61328E+11,0.012496824
8.61459E+11,0.01250215
8.61612E+11,0.012508146
8.6135E+11,0.01251414
8.61492E+11,0.012520134
8.61503E+11,0.012524796
8.61568E+11,0.012528792
8.61601E+11,0.012534118
8.61546E+11,0.012539448
8.61339E+11,0.012544776
8.60674E+11,0.012549438
8.60325E+11,0.012554764
8.59998E+11,0.012560094
8.59539E+11,0.01256542
8.59103E+11,0.01257075
8.5882E+11,0.012577408
8.58929E+11,0.012584068
85938666667,0.01259206
8.59354E+11,0.012600054
8598666667,0.012608046
8.59932E+11,0.012617368
86030285714,0.012626694
8.61917E+11,0.012635352
8.63531E+11,0.012643344
8.64535E+11,0.012651336
8.65102E+11,0.012659326
8.65233E+11,0.012669316
8.6689E+11,0.012677974
8.67676E+11,0.012686632
8.67523E+11,0.012694624
86822095238,0.012700618
8.69682E+11,0.012707946
8.70468E+11,0.01271527
8.70184E+11,0.012722598
8.70446E+11,0.012731256
8.70468E+11,0.012737916
8.7038E+11,0.012742576
87036952381,0.012748572
8.70599E+11,0.012754566
8706095238,0.01276056
8.70533E+11,0.012767884
87024952381,0.012775876
8.68592E+11,0.012783204
86913714286,0.012790528
8.68679E+11,0.012797188
8.68614E+11,0.01280518
8.69039E+11,0.012812508
8.68843E+11,0.012821166
8.68319E+11,0.012829158
8.57336E+11,0.012837148
8.50094E+11,0.012844476
8.46604E+11,0.0128518
8.45208E+11,0.012859128
8.42722E+11,0.01286712
8.40933E+11,0.01287378
83949333333,0.012880438
8.3801E+11,0.012887098
83678857143,0.01289376
8.35262E+11,0.012901086
83360380952,0.012909078
8.32818E+11,0.012915738
8.32993E+11,0.01292373
8.32339E+11,0.012931054
8.31837E+11,0.012937048
83113904762,0.012944376
8.2959E+11,0.012951036
8.29678E+11,0.012961026
8.27932E+11,0.012971682
8.27322E+11,0.01298034
8.27649E+11,0.012986998
8.27583E+11,0.012994326
8277142857,0.01300165
8.27823E+11,0.013008978
8.26013E+11,0.013014304
8.25577E+11,0.013020298
8.25664E+11,0.013027626
8.23919E+11,0.013035616
8.22174E+11,0.013042944
8.21127E+11,0.013049602
8.20603E+11,0.013056262
8.20451E+11,0.013061592
8.18029E+11,0.013066918
81641523810,0.013072912
8.15455E+11,0.013078242
8.14059E+11,0.013083568
8.12183E+11,0.013089562
8.09784E+11,0.013094892
8.04811E+11,0.013099554
8.03677E+11,0.013104214
8.0167E+11,0.013110208
7.9722E+11,0.013116204
79242095238,0.013122198
7.88582E+11,0.013128192
7.83958E+11,0.013135516
7.78461E+11,0.013142844
7.73575E+11,0.013150168
7.69648E+11,0.013158162
7.66333E+11,0.013166154
7.64893E+11,0.013174812
76031238095,0.013182804
75577523810,0.013191462
7.48272E+11,0.013200118
7.27069E+11,0.013208776
6.87806E+11,0.013218102
57158666667,0.01323142
