Stress,Strain
6.15998E+11,0.000100566
62995809524,0.00010656
6.43046E+11,0.000111888
6.53516E+11,0.000118548
6.6704E+11,0.000125874
6.81437E+11,0.000132534
6.86672E+11,0.00013986
6.98887E+11,0.00014652
7.23318E+11,0.000152514
7.43822E+11,0.000159174
7.52547E+11,0.0001665
7.50584E+11,0.000174492
7.73487E+11,0.000182484
7.96173E+11,0.00018981
8.13187E+11,0.000197136
8.26711E+11,0.000205128
8.43289E+11,0.00021312
8.61612E+11,0.000220446
8.80807E+11,0.000227106
89651238095,0.0002331
9.11781E+11,0.000239094
9.27487E+11,0.00024309
9.39266E+11,0.000247086
9.46246E+11,0.000251748
9.44283E+11,0.000257076
9.49736E+11,0.000262404
9.54099E+11,0.000269064
9.58243E+11,0.00027639
9.64569E+11,0.000282384
9.81147E+11,0.000289044
9.95107E+11,0.000293706
1.01343E+12,0.000298368
1.02564E+12,0.000303696
1.03393E+12,0.000309024
1.04135E+11,0.000314352
1.03917E+12,0.00031968
1.04528E+12,0.00032634
1.05095E+12,0.000333666
1.06753E+12,0.000340992
1.07974E+12,0.000346986
1.09108E+11,0.00035298
1.09894E+12,0.000360972
1.10897E+12,0.000370296
1.12424E+12,0.000378954
1.14474E+12,0.000387612
1.16394E+12,0.000396936
1.18313E+12,0.000403596
1.20538E+12,0.000410922
1.22458E+11,0.000418914
1.24072E+12,0.000424908
1.25948E+12,0.000430236
12716952381,0.000436896
1.27824E+12,0.000442224
1.28958E+12,0.000446886
1.30049E+12,0.000450882
1.30834E+11,0.000454878
1.30703E+12,0.00045954
1.31249E+12,0.000464868
1.31728E+12,0.000470196
1.32317E+12,0.000474858
1.34062E+12,0.000480186
1.34717E+12,0.000484848
1.34477E+12,0.000490176
1.34957E+12,0.000496836
1.35415E+12,0.00050283
1.35873E+12,0.000507492
1.37683E+12,0.00051282
1.3921E+12,0.000518148
1.40214E+12,0.000524142
1.40955E+12,0.000531468
1.41915E+12,0.000536796
1.43311E+12,0.000542124
1.44794E+12,0.000547452
1.46103E+12,0.000553446
1.46976E+12,0.00055944
1.46692E+12,0.000565434
1.47412E+12,0.000570762
1.47979E+12,0.00057609
1.49419E+12,0.000581418
1.50335E+12,0.00058608
1.51207E+12,0.000592074
1.51949E+12,0.000598734
1.51796E+12,0.000604728
1.52407E+12,0.00060939
1.53083E+12,0.000614052
1.55003E+11,0.000620046
1.55963E+12,0.000626706
1.56704E+12,0.0006327
1.56617E+12,0.00063936
1.57446E+12,0.000647352
1.59409E+12,0.000655344
1.60674E+12,0.000663336
1.62201E+12,0.000671994
1.63684E+12,0.000679986
1.65211E+12,0.000687312
1.66869E+12,0.000693972
1.68527E+12,0.000700632
1.7001E+12,0.000707958
1.71014E+12,0.000715284
17197333333,0.00072261
1.73064E+12,0.000729936
1.74373E+12,0.000737928
1.75812E+12,0.00074592
1.7699E+12,0.000753912
1.78037E+11,0.000761238
1.7891E+12,0.000767232
1.79913E+12,0.000773226
1.81266E+12,0.00077922
1.82138E+12,0.000785214
1.82793E+12,0.000790542
1.8397E+12,0.00079587
1.84887E+12,0.000800532
1.84647E+12,0.00080586
1.85279E+11,0.000811188
1.85715E+12,0.000817848
1.86392E+12,0.000823176
1.8842E+12,0.00082917
1.89031E+12,0.000835164
1.889E+12,0.000840492
1.89664E+11,0.000845154
1.91212E+11,0.000849816
1.90972E+11,0.000855144
1.91954E+11,0.000861138
1.93612E+11,0.000867132
1932190476,0.000873126
1.93808E+11,0.000880452
1.94397E+11,0.000887778
1.96317E+11,0.00089577
1.97407E+11,0.000903096
1.98847E+11,0.000909756
2.00112E+11,0.000917748
2.01552E+11,0.00092574
2.03166E+11,0.000935064
2.04431E+11,0.000943056
2.05696E+11,0.000951048
2.07354E+11,0.00095904
2.09274E+11,0.000967698
2.11018E+11,0.000974358
2.12633E+11,0.000980352
21407238095,0.000986346
21450857143,0.00099234
2.14356E+11,0.000999
2.14858E+11,0.001007658
2.15316E+11,0.001016316
2.15905E+11,0.001024974
2.17911E+11,0.001033632
2.20006E+11,0.001041624
2.21663E+11,0.00104895
2.23277E+11,0.00105561
2.2415E+11,0.001061604
2240190476,0.001067598
2.2572E+11,0.001073592
2267238095,0.001078254
2280761905,0.001083582
2.286E+11,0.00108891
2.28229E+11,0.00109557
2.28491E+11,0.001104228
2.28491E+11,0.00111222
2.29058E+11,0.001119546
2.31043E+11,0.00112887
2.32046E+11,0.001136862
2.33442E+11,0.001144188
2.34577E+11,0.001151514
23579809524,0.001158174
2.37107E+11,0.001166166
2.37718E+11,0.001174824
2.37543E+11,0.001181484
2.38394E+11,0.00118881
2.40597E+11,0.001198134
2.41687E+11,0.001208124
2.42953E+11,0.001216116
2.4448E+11,0.001224774
2.45658E+11,0.001234098
2.46705E+11,0.001243422
2.48275E+11,0.001251414
2.50151E+11,0.001259406
2.51722E+11,0.001266732
2.52725E+11,0.001274724
2.53772E+11,0.001281384
2.5543E+11,0.001287378
2.5652E+11,0.001294704
25748000000,0.001301364
2.58483E+11,0.001308024
2.58069E+11,0.00131535
2.58745E+11,0.00132201
2.59094E+11,0.001329336
2.59465E+11,0.001336662
2.60207E+11,0.001343322
2.62628E+11,0.00134865
2.63588E+11,0.001353312
2.63151E+11,0.001357308
2.63631E+11,0.001361304
2.63871E+11,0.001365966
2.64111E+11,0.00137196
2.64242E+11,0.001377288
2.64438E+11,0.001382616
2.64078E+11,0.00138861
2.64231E+11,0.001394604
2.64504E+11,0.001399266
2.64744E+11,0.001403928
2.65704E+11,0.001409256
2.66096E+11,0.001415916
2.66162E+11,0.001422576
2.66598E+11,0.001429236
26790666667,0.001436562
2.6843E+11,0.001443888
2.68103E+11,0.001451214
2.68736E+11,0.001459872
2.70524E+11,0.00146853
27196380952,0.001476522
2.73578E+11,0.001484514
2.7541E+11,0.001494504
2.76719E+11,0.001502496
2.77766E+11,0.001509822
2.79249E+11,0.001517148
2.80558E+11,0.001524474
2.81343E+11,0.001532466
2.81213E+11,0.001539792
2.81867E+11,0.001547118
2.82587E+11,0.001553778
2.84485E+11,0.001560438
28509523810,0.001567764
2.85204E+11,0.001575756
2.86797E+11,0.001583082
2.87538E+11,0.001591074
2.88367E+11,0.001597734
2.89065E+11,0.001604394
29006857143,0.001609722
2.90854E+11,0.001616382
2.90461E+11,0.001623708
2.90876E+11,0.0016317
2.91312E+11,0.001639026
2.92555E+11,0.001645686
2.92468E+11,0.001653678
2.94649E+11,0.001660338
2.96264E+11,0.001666998
2.97267E+11,0.001672992
2.96896E+11,0.00167832
2.97725E+11,0.001683648
2.99186E+11,0.00168831
29846666667,0.001693638
2.98816E+11,0.001699632
2.98838E+11,0.001705626
2.98641E+11,0.001710954
2.99426E+11,0.001717614
2.99841E+11,0.00172494
3.0019E+11,0.0017316
3.0067E+11,0.00173826
3.00997E+11,0.001744254
30165142857,0.001750914
3032000000,0.001757574
3.02938E+11,0.0017649
3.03658E+11,0.001772892
3.04313E+11,0.001780218
3.06341E+11,0.00178821
3.07868E+11,0.001795536
3.08784E+11,0.001802196
3.08392E+11,0.001810188
3.09111E+11,0.00181818
3.10704E+11,0.001826838
3.12056E+11,0.00183483
3.12885E+11,0.001842822
3.12602E+11,0.001850814
3.13518E+11,0.00185814
3.15677E+11,0.001865466
3.16593E+11,0.001872792
3.17553E+11,0.001880118
3.18862E+11,0.001887444
3.19647E+11,0.001894104
3.19538E+11,0.001899432
3.2028E+11,0.00190476
3206285714,0.001909422
3.20847E+11,0.001912752
3.2089E+11,0.001916748
3.2053E+11,0.00192141
3.20607E+11,0.001927404
3.20694E+11,0.001934064
3.20541E+11,0.001940724
3.19909E+11,0.00194805
3.20334E+11,0.001952712
3.20356E+11,0.001956042
3.20323E+11,0.001959372
3.20847E+11,0.0019647
3.20847E+11,0.001970028
32050857143,0.001976022
3206285714,0.001983348
3.20727E+11,0.001990008
3.2077E+11,0.001998666
32098857143,0.002005992
3.2257E+11,0.002013984
3.2353E+11,0.002021976
3.25275E+11,0.002028636
3.26365E+11,0.002036628
32719428571,0.002043954
3.27892E+11,0.00205128
3.28852E+11,0.002059272
3.29506E+11,0.002065932
3.29397E+11,0.00207126
3.31208E+11,0.002075922
3.32211E+11,0.002080584
3.32778E+11,0.002083914
3.3256E+11,0.002089908
3.32582E+11,0.002096568
33240761905,0.002103228
3.32178E+11,0.002108556
3.32604E+11,0.002113884
3.32778E+11,0.002119212
3.33237E+11,0.002126538
3.33629E+11,0.002132532
3.34654E+11,0.002139192
3.34371E+11,0.002145852
3.34916E+11,0.002153178
3.35265E+11,0.002160504
3.35745E+11,0.00216783
3.37185E+11,0.00217449
3.38188E+11,0.002179818
3.39235E+11,0.002185812
3.38799E+11,0.002190474
3.39257E+11,0.002195136
3.39344E+11,0.00220113
3.39235E+11,0.002205792
3.38984E+11,0.00221112
3.39181E+11,0.002216448
3.39279E+11,0.002221776
3.39399E+11,0.002227104
3.39977E+11,0.002233764
3.40064E+11,0.002239092
3.39998E+11,0.00224442
3.39824E+11,0.002250414
34124190476,0.002255742
3.40893E+11,0.002261736
3.41569E+11,0.002267064
3.41809E+11,0.002272392
34191809524,0.00227772
3.42136E+11,0.002283714
3.42442E+11,0.00229104
3.42703E+11,0.0022977
3.43052E+11,0.00230436
3.43314E+11,0.002312352
3.4375E+11,0.002320344
3.45517E+11,0.002328336
3.4591E+11,0.002335662
3.46019E+11,0.002342322
3.47786E+11,0.002349648
3.48527E+11,0.002356974
3.48375E+11,0.002365632
3.49116E+11,0.00237429
3.50622E+11,0.002381616
3.51407E+11,0.002388942
3.52279E+11,0.002396268
3.53414E+11,0.002402928
35480952381,0.002410254
3.55377E+11,0.00241758
3.55049E+11,0.002423574
3.55507E+11,0.002429568
3.55704E+11,0.00243423
3.56031E+11,0.002439558
3.56511E+11,0.002445552
3.56554E+11,0.002450214
3.56554E+11,0.002456208
3.56326E+11,0.002461536
3.56576E+11,0.002466864
3.56784E+11,0.002472858
3.57602E+11,0.002478852
3.57907E+11,0.002483514
3.58038E+11,0.002488176
3.58234E+11,0.002493504
3.57929E+11,0.002498832
3.58082E+11,0.002503494
3.5818E+11,0.002508822
3.58289E+11,0.00251415
3.58234E+11,0.002520144
35831047619,0.002525472
3.58485E+11,0.002532132
3.58659E+11,0.002538126
3.59368E+11,0.002544786
3.59826E+11,0.00255078
3.60088E+11,0.002556774
3.60306E+11,0.0025641
3.60721E+11,0.002571426
3.6107E+11,0.002580084
3.61353E+11,0.002588076
3.64538E+11,0.002596068
3.65149E+11,0.00260406
3.65716E+11,0.002613384
3.65694E+11,0.002622042
3.67417E+11,0.002629368
3.68639E+11,0.002636694
3.69904E+11,0.002645352
3.71518E+11,0.00265401
3.72783E+11,0.002661336
3.7322E+11,0.002667996
3.73132E+11,0.002675988
3.73939E+11,0.002682648
3.75794E+11,0.002688642
3.7527E+11,0.002696634
37605523810,0.002704626
3.76448E+11,0.002711952
3.77015E+11,0.00272061
3.77713E+11,0.002729268
3.78346E+11,0.00273726
3.78913E+11,0.00274392
3.79414E+11,0.002749914
38015619048,0.002755908
38194476190,0.002762568
38242476190,0.002768562
3.82228E+11,0.002775222
3.82665E+11,0.002782548
3.82905E+11,0.002789208
3.8321E+11,0.002795202
3.83734E+11,0.002802528
3.83908E+11,0.002809854
3.84039E+11,0.002818512
3.84431E+11,0.002826504
3.85653E+11,0.002833164
3.867E+11,0.00284049
3.88096E+11,0.00284715
3.88925E+11,0.002855142
38851047619,0.002861136
38894666667,0.002867796
3.89448E+11,0.002874456
3.90975E+11,0.002881116
3.91499E+11,0.002887776
3.91717E+11,0.002896434
3.92153E+11,0.002905758
3.92415E+11,0.002915082
3.92786E+11,0.00292374
3.94204E+11,0.002931732
3.9608E+11,0.00294039
3.9765E+11,0.002947716
3.98523E+11,0.002954376
3.99177E+11,0.002962368
4.0018E+11,0.002969028
40096571429,0.002976354
4.00835E+11,0.00298368
40140190476,0.00299034
4.01969E+11,0.002997
4.02536E+11,0.00300366
4.02951E+11,0.003010986
4.03452E+11,0.00301698
4.03801E+11,0.003022974
4.04238E+11,0.003029634
4.04543E+11,0.003034296
4.04674E+11,0.003039624
4.04172E+11,0.003044952
4.04303E+11,0.003049614
4.04379E+11,0.003054942
40434666667,0.003059604
4.04249E+11,0.003064266
40403047619,0.003069594
4.03845E+11,0.003075588
40367047619,0.003082248
4.03103E+11,0.003088908
4.02929E+11,0.003094236
4.03256E+11,0.003101562
4.03267E+11,0.003108888
4.03376E+11,0.00311688
4.04107E+11,0.003125538
4.04608E+11,0.003134196
4.06157E+11,0.003142854
4.07073E+11,0.003152178
4.07902E+11,0.003160836
4.08906E+11,0.003168828
4.1004E+11,0.003178152
4.11305E+11,0.003187476
41274476190,0.0031968
4.13966E+11,0.003205458
4.1449E+11,0.00321345
4.14555E+11,0.003220776
4.1654E+11,0.003227436
4.17282E+11,0.003232764
41680190476,0.003238758
4.17216E+11,0.003244752
4.17107E+11,0.003251412
4.17151E+11,0.003258738
4.16976E+11,0.003266064
4.17216E+11,0.003274056
4.17314E+11,0.003280716
4.17936E+11,0.003287376
4.19419E+11,0.003292704
4.20118E+11,0.003298698
4.19834E+11,0.003304692
4.20118E+11,0.00331002
4.20292E+11,0.003315348
4.20205E+11,0.003321342
4.20085E+11,0.003326004
4.2027E+11,0.003331998
4.20346E+11,0.00333666
42030285714,0.003342654
4.20281E+11,0.003347982
4.2015E+11,0.00335331
42010666667,0.003358638
4.20052E+11,0.003364632
4.19899E+11,0.003371292
4.19703E+11,0.003378618
4.19616E+11,0.003385944
4.19736E+11,0.00339327
4.21165E+11,0.003400596
4.21055E+11,0.003408588
4.21884E+11,0.003414582
42245142857,0.003421242
4.2304E+11,0.003429234
4.23673E+11,0.00343656
4.25047E+11,0.003445218
4.24698E+11,0.003453876
4.25331E+11,0.003461202
4.27141E+11,0.003469194
4.28406E+11,0.00347652
4.28755E+11,0.003484512
4.28755E+11,0.003492504
4.29192E+11,0.003501162
4.29715E+11,0.003509154
4.30348E+11,0.003515814
4.32071E+11,0.003523806
43307428571,0.003530466
4.32725E+11,0.003537792
4.33402E+11,0.003544452
4.33903E+11,0.003551112
4.34361E+11,0.003557106
4.35016E+11,0.003563766
4.3543E+11,0.003568428
4.35692E+11,0.003573756
4.35757E+11,0.003579084
4.35256E+11,0.00358308
4.35299E+11,0.003589074
4.34863E+11,0.003593736
4.34579E+11,0.00359973
4.34601E+11,0.003605724
4.34405E+11,0.003611718
43454666667,0.003619044
43447047619,0.00362637
4.34372E+11,0.003633696
4.34405E+11,0.003639024
4.34569E+11,0.00364635
4.35997E+11,0.00365301
4.35474E+11,0.00365967
4.35932E+11,0.00366633
4.36215E+11,0.00367299
4.36455E+11,0.00367965
4.36913E+11,0.003685644
4.37415E+11,0.003690972
4.37742E+11,0.0036963
4.37961E+11,0.003703626
4.38113E+11,0.003710952
4.37677E+11,0.003718278
4.37928E+11,0.003723606
4.39357E+11,0.003730266
4.39073E+11,0.003737592
4.39749E+11,0.00374292
4.40142E+11,0.00374958
4.40469E+11,0.003755574
44079619048,0.003760902
4.40883E+11,0.003765564
4.41058E+11,0.003770226
4.41298E+11,0.003774222
4.41145E+11,0.00377955
4.41167E+11,0.003786876
4.41134E+11,0.003792204
4.41123E+11,0.003798198
4.41123E+11,0.00380286
4.412E+11,0.00380952
4.41276E+11,0.003815514
44123238095,0.003821508
4.41669E+11,0.003828168
4.41865E+11,0.003834828
44159238095,0.003840156
44178857143,0.003845484
4.41974E+11,0.003852144
4.42628E+11,0.003858138
4.42978E+11,0.003864132
4.43196E+11,0.00386946
4.43435E+11,0.00387612
4.43545E+11,0.00388278
4.43337E+11,0.003890772
4.43457E+11,0.003897432
4.44243E+11,0.00390276
4.46031E+11,0.003908754
4.46031E+11,0.003914082
4.45988E+11,0.00391941
4.46271E+11,0.003925404
4.46184E+11,0.003930066
4.46315E+11,0.003935394
4.46118E+11,0.003940722
4.4626E+11,0.003947382
4.46282E+11,0.003954042
4.46348E+11,0.003961368
44644571429,0.003968694
4.46587E+11,0.003976686
4.47296E+11,0.003983346
4.47994E+11,0.003990006
4.49565E+11,0.003996666
4.50263E+11,0.00400266
4.49914E+11,0.00400932
4.50372E+11,0.00401598
4.50634E+11,0.004021974
4.50874E+11,0.0040293
4.51201E+11,0.00403596
4.51594E+11,0.004043286
4.52117E+11,0.004051278
4.52619E+11,0.004058604
4.53273E+11,0.004066596
4.53666E+11,0.004073922
4.5384E+11,0.004079916
4.54407E+11,0.00408591
4.55803E+11,0.004091904
45547619048,0.004097232
4.56196E+11,0.00410256
45639238095,0.004108554
4.56458E+11,0.004114548
4.56523E+11,0.004120542
4.56305E+11,0.00412587
4.56502E+11,0.004130532
4.56785E+11,0.00413586
4.57527E+11,0.004141188
4.57919E+11,0.004146516
4.58138E+11,0.004151844
4.58007E+11,0.004157172
4.57636E+11,0.004161834
4.57821E+11,0.004167162
4.57963E+11,0.004173822
4.57887E+11,0.004180482
4.5793E+11,0.004186476
4.58018E+11,0.004191804
4.58552E+11,0.004197798
4.59054E+11,0.004205124
4.59228E+11,0.00421245
4.59446E+11,0.004219776
4.5997E+11,0.004227102
4.61737E+11,0.004235094
4.62086E+11,0.004241754
4.62086E+11,0.004249746
4.62696E+11,0.004257072
4.6418E+11,0.004264398
46522666667,0.004273056
4.66099E+11,0.004281048
46701523810,0.004287708
4.68237E+11,0.004295034
4.69109E+11,0.004301028
4.69938E+11,0.004308354
4.69677E+11,0.004314348
4.69807E+11,0.004321008
4.69982E+11,0.004328334
4.70113E+11,0.004336326
4.69938E+11,0.004342986
4.70898E+11,0.004349646
4.72774E+11,0.004356972
4.73472E+11,0.0043623
4.73298E+11,0.004369626
4.73734E+11,0.004376952
4.73908E+11,0.004386276
4.74192E+11,0.004394268
4.74541E+11,0.004402926
4.76177E+11,0.004410918
4.77049E+11,0.004418244
4.77747E+11,0.004424904
4.78707E+11,0.004430898
4.7958E+11,0.004436892
4.79056E+11,0.004442886
4.79187E+11,0.004450212
4.79078E+11,0.004458204
4.7874E+11,0.00446553
47903428571,0.004471524
4.79307E+11,0.004476852
47990666667,0.004483512
4.80321E+11,0.00448884
4.80736E+11,0.0044955
4.81128E+11,0.004501494
4.81565E+11,0.004508154
4.82044E+11,0.00451548
4.82132E+11,0.004523472
4.82219E+11,0.004532796
4.82524E+11,0.004542786
4.84378E+11,0.004552776
4.85687E+11,0.0045621
4.87345E+11,0.00457209
4.89134E+11,0.00458208
4.90486E+11,0.004590072
4.92318E+11,0.004598064
4.93802E+11,0.004606056
49419428571,0.004614048
4.94107E+11,0.00462204
4.94718E+11,0.004630032
4.9607E+11,0.004637358
4.95896E+11,0.004643352
4.96746E+11,0.004649346
4.98208E+11,0.004654674
4.97902E+11,0.004660002
4.98164E+11,0.004664664
4.98012E+11,0.004669326
4.97466E+11,0.004674654
4.9703E+11,0.004680648
4.96572E+11,0.004686642
4.9631E+11,0.00469197
4.96092E+11,0.00469863
4.96048E+11,0.004704624
4.96332E+11,0.004711284
4.9631E+11,0.004716612
4.96321E+11,0.00472194
4.96365E+11,0.004727268
4.96354E+11,0.004733262
4.96321E+11,0.004739922
4.96528E+11,0.004746582
4.96637E+11,0.004754574
4.96801E+11,0.0047619
4.97314E+11,0.004771224
49737904762,0.004780548
4.97902E+11,0.004789206
4.99735E+11,0.004797864
5.00913E+11,0.004806522
5.02396E+11,0.00481518
5.03356E+11,0.004823172
5030285714,0.00483183
5.03857E+11,0.004841154
5.04337E+11,0.00484848
5.04904E+11,0.004855806
5.05406E+11,0.004863132
5.05995E+11,0.004869792
5.07457E+11,0.004877118
5.06955E+11,0.004884444
5.07304E+11,0.00489177
5.07435E+11,0.004897764
5.06944E+11,0.004904424
5.07238E+11,0.004910418
5.07664E+11,0.004917744
5.09158E+11,0.004923738
5.08896E+11,0.004929066
5.09485E+11,0.00493506
5.09616E+11,0.004940388
5.09878E+11,0.004945716
5.09943E+11,0.004952376
5.09638E+11,0.00495837
5.09682E+11,0.004964364
5.09856E+11,0.004970358
5.09965E+11,0.00497502
5.09856E+11,0.004981014
5.09801E+11,0.004987008
5.09801E+11,0.004993668
5.09812E+11,0.005000994
5.09823E+11,0.005006988
5.099E+11,0.005014314
5.1002E+11,0.005022306
5.10816E+11,0.005029632
5.1147E+11,0.005037624
5.1195E+11,0.005045616
5.1219E+11,0.005052276
5.12561E+11,0.005060268
5.14E+11,0.005067594
5.15309E+11,0.005074254
5.15876E+11,0.005082246
5.15571E+11,0.005088906
5.16051E+11,0.0050949
5.16553E+11,0.005102226
5.18145E+11,0.005109552
5.1773E+11,0.005116212
5.18145E+11,0.005123538
5.18254E+11,0.005130864
5.18341E+11,0.005137524
5.18581E+11,0.00514485
5.18374E+11,0.00515151
5.18559E+11,0.005158836
5.19257E+11,0.005166162
51954095238,0.005174154
5.20043E+11,0.005180148
5.20392E+11,0.005185476
5.20479E+11,0.005190804
5.20784E+11,0.005195466
5.20871E+11,0.005202126
5204571429,0.005208786
5.20424E+11,0.00521478
51997714286,0.005220774
5.19737E+11,0.005226768
5.20272E+11,0.005232762
5.20272E+11,0.00523809
5.2001E+11,0.00524475
5.19955E+11,0.005250744
5.20064E+11,0.005256738
5.20043E+11,0.005263398
5.20108E+11,0.005268726
52021714286,0.005272722
5.20184E+11,0.00527805
52009714286,0.005282712
5.20108E+11,0.005289372
5.20021E+11,0.005296032
5.19475E+11,0.005302692
5.19323E+11,0.005308686
5.19705E+11,0.005315346
5.19672E+11,0.00532134
5.19748E+11,0.005326668
5.20479E+11,0.005333994
5.21024E+11,0.005340654
5.21504E+11,0.005346648
5.21722E+11,0.005352642
5.2218E+11,0.00535797
5.22377E+11,0.005365296
52248571429,0.005371956
52272571429,0.005379948
5.22966E+11,0.005386608
5.24296E+11,0.005391936
5.24907E+11,0.00539793
5.24711E+11,0.00540459
52519047619,0.005410584
5.25496E+11,0.005416578
5.25889E+11,0.005421906
5.26172E+11,0.005429232
5.26346E+11,0.005435892
5.26456E+11,0.005443218
5.26238E+11,0.005449878
52697904762,0.005455872
5.2735E+11,0.005461866
5.27743E+11,0.005468526
5.28092E+11,0.00547452
5.2831E+11,0.005479848
5285714.286,0.005487174
5.28899E+11,0.0054945
52924761905,0.00550116
5.29553E+11,0.005506488
5.30207E+11,0.005511816
5.31538E+11,0.005517144
5.30927E+11,0.005522472
5.31036E+11,0.0055278
5.30546E+11,0.005532462
5.30753E+11,0.005538456
5.30862E+11,0.005543784
5.30938E+11,0.005549778
5.30786E+11,0.005555772
5.30709E+11,0.005561766
53072000000,0.005567094
5.30775E+11,0.005572422
5.30807E+11,0.005579082
53084000000,0.005585076
53096000000,0.005591736
5.3156E+11,0.00559773
5.31778E+11,0.00560439
5.32127E+11,0.00561105
5.32367E+11,0.005618376
5.32367E+11,0.005625036
5.32629E+11,0.005631696
5.33021E+11,0.005638356
5.34505E+11,0.005645016
5.34352E+11,0.005652342
5.34832E+11,0.005659668
5.35181E+11,0.005666994
5.35574E+11,0.005673654
5.3686E+11,0.005680314
5.36686E+11,0.00568764
5.3734E+11,0.0056943
5.37907E+11,0.005699628
5.38387E+11,0.005704956
5.3878E+11,0.005710284
5.38824E+11,0.005716278
5.3878E+11,0.005722938
5.38573E+11,0.005728932
5.3878E+11,0.005735592
5.38889E+11,0.005741586
5.39063E+11,0.00574758
53911809524,0.005752908
53991428571,0.005758902
5.40438E+11,0.005765562
5.40721E+11,0.00577089
5.41354E+11,0.005776884
5.41768E+11,0.005783544
5.42226E+11,0.005788206
5.42641E+11,0.005793534
54281523810,0.005798862
5.4299E+11,0.00580419
5.42575E+11,0.005809518
5.42794E+11,0.005815512
5.42848E+11,0.00582084
5.42881E+11,0.005826168
5.42837E+11,0.005832828
5.42804E+11,0.005838822
54281523810,0.005845482
5.42783E+11,0.005851476
54285904762,0.00585747
5.42979E+11,0.005864796
5.43688E+11,0.00587079
5.44277E+11,0.005876784
5.44975E+11,0.00588411
5.45629E+11,0.005892102
5.45978E+11,0.005900094
5.46371E+11,0.005908086
5.46829E+11,0.005915412
5.48683E+11,0.005922738
5.49774E+11,0.005931396
5.5021E+11,0.00594072
5.50275E+11,0.005950044
5.51955E+11,0.005958702
5.53133E+11,0.00596736
5.54311E+11,0.005976684
5.55183E+11,0.005985342
5.5623E+11,0.005994
5.57583E+11,0.006001326
5.58542E+11,0.006009318
5593714286,0.006016644
5.60069E+11,0.006025302
5.60113E+11,0.006031962
5.61683E+11,0.00603729
5.61422E+11,0.006043284
5.61814E+11,0.006049944
5.61749E+11,0.006055938
5.61683E+11,0.006063264
5.61498E+11,0.006069924
5.61673E+11,0.006076584
5.61705E+11,0.006084576
5.61662E+11,0.006091902
56164000000,0.006099228
5.61705E+11,0.00610722
5.61934E+11,0.006114546
5.62665E+11,0.006121872
5.63341E+11,0.006128532
5647809524,0.006134526
5.65654E+11,0.006139854
5.65479E+11,0.00614718
5.66068E+11,0.006155172
5.66308E+11,0.00616383
56637333333,0.006171822
5.66766E+11,0.00618048
5.68271E+11,0.006188472
5.69362E+11,0.00619713
5.70452E+11,0.006205122
5.71412E+11,0.006212448
5.72416E+11,0.006221106
5.73114E+11,0.006229098
5.72961E+11,0.006237756
57361523810,0.006245748
5.74073E+11,0.006252408
5.74619E+11,0.006257736
5.7512E+11,0.006264396
5.75513E+11,0.006271056
5.75927E+11,0.006277716
5.76276E+11,0.006285708
5.768E+11,0.006293034
5.7728E+11,0.006301026
5.7776E+11,0.006309018
5.78327E+11,0.00631701
5.78719E+11,0.006323004
5.79287E+11,0.006328998
5.79876E+11,0.006335658
5.80355E+11,0.006342984
5.80683E+11,0.006349644
5.8077E+11,0.006355638
5.80901E+11,0.0063603
5.80715E+11,0.006365628
5.80879E+11,0.00637029
5.8101E+11,0.006374286
5.81021E+11,0.006378948
5.80748E+11,0.00638361
5.78392E+11,0.006389604
5.7909E+11,0.006395598
5.78523E+11,0.006400926
5.78458E+11,0.006406254
5.78763E+11,0.006410916
57882857143,0.006417576
5.7837E+11,0.006424236
5.78196E+11,0.006432228
5.77651E+11,0.00644022
5.77694E+11,0.006448212
5782285714,0.00645687
58018095238,0.006465528
5.81795E+11,0.006474186
5.82624E+11,0.00648351
5.82362E+11,0.006492834
5.8306E+11,0.00650349
58471809524,0.006512148
58650666667,0.006520806
5.87554E+11,0.006528798
5.88252E+11,0.006536124
5.89517E+11,0.006542784
5.90346E+11,0.006549444
5.89844E+11,0.006555438
5.90346E+11,0.006561432
5.90324E+11,0.006568092
5.90258E+11,0.00657342
5.90073E+11,0.006578748
5.90258E+11,0.006584076
5.90346E+11,0.006589404
5.90433E+11,0.006595398
5.90542E+11,0.006602058
5.90978E+11,0.006608052
5.90673E+11,0.006614046
5.90738E+11,0.006620706
5.90858E+11,0.006628032
5.90978E+11,0.006634692
5.91153E+11,0.006641352
5.92658E+11,0.006648012
5.934E+11,0.006656004
5.93247E+11,0.006664662
5.93574E+11,0.00667332
5.94098E+11,0.006681312
5.95755E+11,0.006690636
5.96977E+11,0.006697962
5.9798E+11,0.006705288
5.9894E+11,0.006712614
5.99943E+11,0.00671994
6.00772E+11,0.006727266
6.00642E+11,0.006735924
6.01165E+11,0.006744582
6.01776E+11,0.00675324
6.03521E+11,0.006761898
6.04393E+11,0.00676989
6.05222E+11,0.006778548
6.06444E+11,0.006785874
60688000000,0.006792534
6.06596E+11,0.006797862
6.06836E+11,0.006803856
6.06836E+11,0.006810516
6.06967E+11,0.00681651
6.06847E+11,0.00682317
6.07011E+11,0.006829164
6.07033E+11,0.006835158
6.07087E+11,0.006840486
6.07065E+11,0.006847146
6.07109E+11,0.00685314
6.07087E+11,0.00685647
6.07087E+11,0.006861132
6.07076E+11,0.006867126
6.06902E+11,0.006871788
6.0531E+11,0.006877782
6.0496E+11,0.006881112
6.05179E+11,0.00688644
60485142857,0.006891768
6.04655E+11,0.00689643
6.04437E+11,0.006901758
60417523810,0.006909084
6.03761E+11,0.006914412
6.0243E+11,0.006921072
6.02932E+11,0.006928398
6.02779E+11,0.006933726
6.0339E+11,0.00693972
6.03368E+11,0.006947046
6.0387E+11,0.006951708
6.04262E+11,0.006957036
6.04437E+11,0.006963696
6.04481E+11,0.00696969
6.04241E+11,0.006975018
6.04361E+11,0.00697968
6.04426E+11,0.006983676
6.04557E+11,0.00698967
60461142857,0.006995664
6.04502E+11,0.007000992
6.0447E+11,0.007008984
6.04546E+11,0.007016976
6.04524E+11,0.007025634
6.04797E+11,0.007032294
6.06531E+11,0.007038288
6.07273E+11,0.007044282
6.08407E+11,0.007051608
6.088E+11,0.0070596
6.08712E+11,0.007067592
6.09236E+11,0.007074252
6.09716E+11,0.007080246
6.11242E+11,0.007087572
6.1109E+11,0.007094232
6.11657E+11,0.007100226
6.12311E+11,0.007104888
6.12682E+11,0.007110216
6.12944E+11,0.00711621
6.12878E+11,0.007123536
6.12464E+11,0.007130196
6.12573E+11,0.007138188
61276952381,0.00714618
6.12857E+11,0.007152174
6.13467E+11,0.007158834
6.15213E+11,0.007164828
61547428571,0.007170822
6.15431E+11,0.007176816
6.15867E+11,0.007184142
6.1602E+11,0.007190802
6.16456E+11,0.007197462
6.1687E+11,0.007202124
6.17023E+11,0.007208118
6.17198E+11,0.00721278
61682666667,0.007218108
6.16925E+11,0.007223436
6.16859E+11,0.007228764
6.16434E+11,0.007234758
6.16281E+11,0.007240752
6.16085E+11,0.00724608
6.16379E+11,0.007250742
6.16303E+11,0.00725607
6.16303E+11,0.00726273
6.16227E+11,0.007268058
6.16238E+11,0.007274718
6.16249E+11,0.007282044
6.16292E+11,0.007288704
6.16314E+11,0.007295364
6.16412E+11,0.007302024
6.16598E+11,0.007308684
6.18092E+11,0.007314678
6.18877E+11,0.007321338
6.18615E+11,0.007327998
6.18681E+11,0.007335324
6.18681E+11,0.007343316
61889904762,0.007350642
6.20753E+11,0.007356636
62136380952,0.007363296
6.21102E+11,0.007369956
62156000000,0.007376616
6.21974E+11,0.007383276
6.22302E+11,0.007390602
6.22607E+11,0.007397262
6.22825E+11,0.007403256
6.23109E+11,0.007409916
6.24461E+11,0.007415244
6.24156E+11,0.007420572
6.24679E+11,0.007426566
6.24898E+11,0.007431894
62522476190,0.007436556
6.2553E+11,0.007441884
6.25748E+11,0.007447212
6.25988E+11,0.00745254
6.25595E+11,0.007458534
6.25737E+11,0.007464528
6.25759E+11,0.007470522
6.25868E+11,0.00747585
6.25814E+11,0.007481178
6.25857E+11,0.00748584
6.25846E+11,0.007490502
6.25857E+11,0.00749583
6.25846E+11,0.007501824
6.25748E+11,0.007507818
6.2577E+11,0.007515144
6.25683E+11,0.00752247
62566095238,0.007528464
6.25617E+11,0.007534458
6.25803E+11,0.007540452
62768952381,0.007547778
6.27362E+11,0.007555104
6.28104E+11,0.007561764
6.28627E+11,0.007567092
6.29173E+11,0.007573752
6.29456E+11,0.007581744
6.29544E+11,0.007589736
6.29653E+11,0.007597728
6.29456E+11,0.00760572
6.31572E+11,0.007615044
6.33317E+11,0.007623036
6.34452E+11,0.007631694
6.35237E+11,0.007640352
6.35041E+11,0.00764901
6.35738E+11,0.007656336
63763619048,0.007664328
6.38509E+11,0.00767232
6.38356E+11,0.00767898
63898857143,0.007686306
6.39403E+11,0.0076923
6.39927E+11,0.007697628
6.40014E+11,0.007703622
6.40036E+11,0.007710282
6.3973E+11,0.007716942
6.39981E+11,0.007723602
6.40112E+11,0.007730928
6.40276E+11,0.007737588
6.40363E+11,0.007744248
6.40886E+11,0.007750908
6.40974E+11,0.007757568
6.40865E+11,0.007764894
6.41475E+11,0.007773552
6.41672E+11,0.007780878
6.42282E+11,0.00778887
6.43657E+11,0.007796196
64352571429,0.007802856
64424571429,0.00780885
6.44682E+11,0.007816842
6.45271E+11,0.0078255
6.45642E+11,0.007832826
6.46078E+11,0.007840152
6.47758E+11,0.00784881
6.48892E+11,0.007856136
6.49721E+11,0.007864794
6.51073E+11,0.007873452
6.52425E+11,0.007881444
6.53429E+11,0.007888104
6.54127E+11,0.00789543
6.54105E+11,0.007903422
6.54672E+11,0.007910748
6.54999E+11,0.007918074
6.55326E+11,0.007926066
6.55872E+11,0.007934724
6.57748E+11,0.007942716
6.58489E+11,0.007950708
6.59667E+11,0.007958034
6.60453E+11,0.007964028
6.59994E+11,0.007970688
6.60387E+11,0.00797868
66051809524,0.00798534
6.6078E+11,0.007992
66119428571,0.007997994
6.61696E+11,0.008003322
6.61958E+11,0.008009316
6.61958E+11,0.00801531
6.61521E+11,0.00802197
6.6174E+11,0.00802863
6.61805E+11,0.00803529
6.61816E+11,0.008042616
6.61914E+11,0.008047944
6.61969E+11,0.008053272
6.62503E+11,0.0080586
6.62656E+11,0.008063262
6.62165E+11,0.008067924
6.62121E+11,0.008073918
6.62132E+11,0.008079912
6.61478E+11,0.00808524
6.61347E+11,0.008092566
6.61042E+11,0.008100558
6.60802E+11,0.00810855
6.61336E+11,0.008116542
6.62808E+11,0.008124534
6.63158E+11,0.008132526
6.63376E+11,0.008141184
6.65208E+11,0.008150508
6.65862E+11,0.008159832
6.6571E+11,0.008167824
6.66517E+11,0.00817515
6.69047E+11,0.008183142
6.70138E+11,0.0081918
6.69679E+11,0.008199792
6.70574E+11,0.008207784
6.70857E+11,0.00821511
6.71228E+11,0.008222436
6.71512E+11,0.008230428
6.7173E+11,0.008237754
6.72101E+11,0.008244414
6.72581E+11,0.008251074
6.74107E+11,0.0082584
6.74718E+11,0.00826506
67432571429,0.008271054
6.74697E+11,0.008275716
6.74915E+11,0.008280378
6.7498E+11,0.008285706
6.74555E+11,0.008291034
6.73758E+11,0.008296362
6.73955E+11,0.00830169
6.73671E+11,0.008307684
67360571429,0.008314344
6.73453E+11,0.008321004
6.73791E+11,0.008327664
6.73758E+11,0.008332992
6.73955E+11,0.008338986
6.74587E+11,0.00834498
6.74827E+11,0.00835164
6.7498E+11,0.0083583
6.74598E+11,0.008365626
6.74784E+11,0.008372952
6.74936E+11,0.008380944
6.75166E+11,0.008389602
6.76725E+11,0.00839826
6.76529E+11,0.008406252
6.77183E+11,0.008414244
6.77838E+11,0.008422902
6.79779E+11,0.00843156
6.80608E+11,0.008439552
6.80477E+11,0.008446212
6.82702E+11,0.008452872
6.83443E+11,0.008460198
6.82942E+11,0.00846819
6.83443E+11,0.008475516
6.83443E+11,0.008482842
6.83683E+11,0.008489502
68403238095,0.008496162
68451238095,0.008503488
6.84883E+11,0.008510148
6.85319E+11,0.008515476
6.85668E+11,0.008522136
6.85778E+11,0.00852813
6.86039E+11,0.00853479
6.85679E+11,0.008540784
6.85799E+11,0.008545446
68586476190,0.008552106
6.8593E+11,0.008559432
6.85897E+11,0.008566758
6.85799E+11,0.008572752
6.85723E+11,0.008579412
6.85646E+11,0.008584074
6.85603E+11,0.008587404
6.85614E+11,0.008592732
6.85483E+11,0.008597394
6.85363E+11,0.008603388
6.85221E+11,0.008609382
6.84599E+11,0.008614044
68451238095,0.008618706
68446857143,0.008624034
6.84676E+11,0.008628696
6.8437E+11,0.008633358
6.84196E+11,0.008638686
68311619048,0.008644014
6.81611E+11,0.008649342
6.822E+11,0.008655336
6.81873E+11,0.00866133
6.82353E+11,0.008667324
6.82615E+11,0.008675982
6.8316E+11,0.008683974
6.8364E+11,0.008691966
6.83967E+11,0.008700624
6.84665E+11,0.008708616
6.86148E+11,0.008715276
6.86039E+11,0.008722602
6.87719E+11,0.008729262
6.88591E+11,0.008735256
6.88308E+11,0.00874125
6.89028E+11,0.00874791
6.89355E+11,0.008755236
6.89486E+11,0.00876123
6.89507E+11,0.008766558
6.89267E+11,0.008772552
6.89507E+11,0.00877788
6.89747E+11,0.008783874
6.90402E+11,0.008789202
6.9062E+11,0.00879453
69059809524,0.008799192
6.90238E+11,0.008805852
6.90249E+11,0.008812512
6.89704E+11,0.008819172
6.89617E+11,0.008826498
6.90729E+11,0.008832492
6.91558E+11,0.008838486
6.91362E+11,0.00884448
6.91841E+11,0.00885114
6.91863E+11,0.008858466
6.91841E+11,0.008863794
6.91536E+11,0.008869788
6.91863E+11,0.008877114
6.9206E+11,0.008883774
6.92845E+11,0.008889102
69330285714,0.00889443
6.93739E+11,0.008899758
6.93957E+11,0.008905752
69378285714,0.008911746
6.93445E+11,0.00891774
6.93532E+11,0.0089244
6.93041E+11,0.00893106
6.93434E+11,0.008936388
6.93401E+11,0.008941716
6.93445E+11,0.00894771
6.94045E+11,0.008953704
6.94328E+11,0.00896103
6.94415E+11,0.008968356
6.94481E+11,0.008975682
6.9423E+11,0.008983008
6.94514E+11,0.008989668
6.95397E+11,0.008996328
6.96662E+11,0.009002988
6.96291E+11,0.009010314
6.96706E+11,0.009016308
6.9688E+11,0.009022302
6.9712E+11,0.009028296
6.97295E+11,0.00903429
6.96978E+11,0.009041616
6.97131E+11,0.009048276
69740380952,0.009056268
6.99236E+11,0.009062928
6.988E+11,0.009069588
6.99258E+11,0.009076248
69967238095,0.009082908
6.99803E+11,0.009089568
7.00152E+11,0.009096228
7.00392E+11,0.009102222
7.00458E+11,0.009108216
7.00959E+11,0.009113544
7.02508E+11,0.009118872
7.02159E+11,0.0091242
7.02202E+11,0.009129528
7.00937E+11,0.00913419
7.01537E+11,0.009138852
7.0109E+11,0.009143514
70122095238,0.009148176
7.01614E+11,0.00915417
7.0133E+11,0.009159498
70090476190,0.009164826
7.00392E+11,0.00917082
7.00327E+11,0.009176148
7.0037E+11,0.009181476
7.00643E+11,0.009188136
7.00501E+11,0.009194796
7.00556E+11,0.009202122
7.01984E+11,0.009209448
7.02944E+11,0.00921744
7.03817E+11,0.009224766
7.03402E+11,0.009232758
7.04078E+11,0.00924075
70460190476,0.009250074
7.05911E+11,0.009258732
7.07002E+11,0.00926739
7.08485E+11,0.009276714
7.09488E+11,0.009286038
7.10928E+11,0.009296028
7.12455E+11,0.009304686
7.13938E+11,0.00931401
7150285714,0.009322002
7.1577E+11,0.00933066
7.16905E+11,0.009338652
7.1769E+11,0.009345978
7.17494E+11,0.009352638
7.18235E+11,0.009359964
7.18737E+11,0.009366624
71932571429,0.009373284
7.19849E+11,0.009379944
7.20067E+11,0.009386604
7.20067E+11,0.009392598
7.20111E+11,0.009399258
7.1998E+11,0.009405252
7.20155E+11,0.009411912
7.20318E+11,0.009418572
7.20373E+11,0.009424566
7.20406E+11,0.00943056
7.2058E+11,0.009436554
72091809524,0.009444546
7.21616E+11,0.009453204
7.22074E+11,0.009459864
7.2238E+11,0.009466524
7.22663E+11,0.009473184
7.22925E+11,0.009481842
7.22969E+11,0.009489834
72270666667,0.009497826
7.23448E+11,0.00950715
7.25324E+11,0.009516474
7.25935E+11,0.009525132
7.27157E+11,0.009534456
7.28814E+11,0.00954378
7.3008E+11,0.009551772
7.3117E+11,0.009559764
7.30821E+11,0.009567756
7.31737E+11,0.009575748
7.33526E+11,0.009583074
7.33046E+11,0.009589734
7338095238,0.009596394
7.34224E+11,0.009603054
7.34398E+11,0.009609714
7.34813E+11,0.009615708
7.35075E+11,0.009621036
7.35031E+11,0.009625032
7.34649E+11,0.00963036
7.34671E+11,0.009636354
73424571429,0.009642348
7.33875E+11,0.009649674
7.33548E+11,0.009657
7.33417E+11,0.009664326
7.33242E+11,0.00967032
7.33799E+11,0.00967698
7.33908E+11,0.009683638
7.34617E+11,0.009688968
7.34944E+11,0.009694294
7.35053E+11,0.009699624
7.35271E+11,0.009705618
7.3562E+11,0.009710944
7.35249E+11,0.009716274
7.3514E+11,0.009721602
7.35042E+11,0.009726264
7.34377E+11,0.009730926
7.34071E+11,0.009735588
7.33722E+11,0.009738918
7.33504E+11,0.00974358
7.32915E+11,0.00975024
7.32326E+11,0.009756898
7.31083E+11,0.009764892
7.3117E+11,0.009772884
7.30843E+11,0.009781542
7311047619,0.009790198
7.33046E+11,0.00980019
7.34311E+11,0.009809514
7.35053E+11,0.009818838
7.36187E+11,0.009827496
7.37845E+11,0.009836152
7.38979E+11,0.00984481
7.3959E+11,0.009854136
7.39677E+11,0.009863458
7.4031E+11,0.009872118
7.40921E+11,0.009880108
7.41618E+11,0.009888102
7.43254E+11,0.009895428
7.44258E+11,0.009902088
7.44869E+11,0.009908082
74467238095,0.009915408
7.45021E+11,0.009922066
7.45E+11,0.009928728
7.444E+11,0.009935388
7.44607E+11,0.009940714
7.44258E+11,0.009946044
7.44018E+11,0.009952038
7.44378E+11,0.009958032
7.44269E+11,0.009964026
7.44138E+11,0.009968688
7.44018E+11,0.009974016
74399619048,0.00998001
7.43854E+11,0.009985338
7.43669E+11,0.009991332
7.43058E+11,0.00999666
7.42753E+11,0.010003318
7.42578E+11,0.010009314
7.4296E+11,0.010015308
7.42796E+11,0.010022634
7.42698E+11,0.010028626
7.42698E+11,0.010035288
7.42807E+11,0.010041948
7.43298E+11,0.01004994
7.43582E+11,0.01005793
7.43822E+11,0.010065924
7.44214E+11,0.01007325
7.44869E+11,0.010081908
7.46221E+11,0.0100899
7.46068E+11,0.010098558
7.46657E+11,0.01010655
7.48097E+11,0.010113876
7.49057E+11,0.010121202
7.49711E+11,0.010127196
7.49493E+11,0.010133188
7.49755E+11,0.010139182
7.49951E+11,0.010144512
7.49907E+11,0.010151172
7.49558E+11,0.010157832
7.49548E+11,0.01016449
7.49166E+11,0.010172484
7.48948E+11,0.010180476
7.49318E+11,0.010188468
7.49297E+11,0.01019646
7.49362E+11,0.010202454
7.51107E+11,0.010208446
7.51762E+11,0.01021444
7512380.952,0.01021977
7512380.952,0.010225096
7.51194E+11,0.01023109
7.509E+11,0.01023642
7.50933E+11,0.010241746
7.50344E+11,0.010247076
7498857143,0.010252404
7.49362E+11,0.010257066
7.48795E+11,0.010262392
7.48271E+11,0.010267722
7.47661E+11,0.010273716
7.47464E+11,0.01027971
7.47486E+11,0.010284372
7.47486E+11,0.010292364
7.47552E+11,0.010300354
7.47334E+11,0.010307016
7.47323E+11,0.010313676
7.47268E+11,0.010320336
7.47279E+11,0.010325664
74742095238,0.010331656
7.47486E+11,0.010338318
7.47814E+11,0.010344978
7.47966E+11,0.010350972
7.47792E+11,0.0103563
7.47934E+11,0.010362958
7.48141E+11,0.01036962
7.48261E+11,0.010376946
7.48206E+11,0.010384272
7.4837E+11,0.010390264
7.50017E+11,0.010396258
7.5054E+11,0.01040292
7.50147E+11,0.010408912
7.50147E+11,0.010415574
7.50104E+11,0.010421566
7.49929E+11,0.01042756
7.50147E+11,0.01043289
7.50289E+11,0.010438216
7.50311E+11,0.010443546
7.50267E+11,0.010448208
7.50257E+11,0.010453536
7.50278E+11,0.010458862
75020190476,0.01046286
7.49471E+11,0.010468188
7.49166E+11,0.010474182
7.48751E+11,0.010480842
7.48359E+11,0.010486836
7.4825E+11,0.010493496
74805333333,0.01050082
7.48381E+11,0.010507482
74829333333,0.010514808
7.48381E+11,0.010522134
7.4837E+11,0.010528794
7.49035E+11,0.010534788
7.49471E+11,0.010540782
7.49668E+11,0.01054611
7.50082E+11,0.010551438
7.50278E+11,0.010556766
7.49744E+11,0.01056276
7.49875E+11,0.010568754
7.50115E+11,0.01057408
7.50115E+11,0.010578076
7498857143,0.01058274
7.49777E+11,0.010588068
7.49144E+11,0.010595394
7.48817E+11,0.010602054
7.48751E+11,0.010608048
7.48599E+11,0.010614708
7.48839E+11,0.010620034
74877333333,0.010626028
74872952381,0.010632688
7.4861E+11,0.010638682
7.48511E+11,0.010644678
7.48588E+11,0.010650672
7.48566E+11,0.01065733
7.4849E+11,0.010664658
7.48446E+11,0.010671318
7485333333,0.010677312
7.48642E+11,0.010685304
7.49253E+11,0.01069263
7.49493E+11,0.010699956
7.4982E+11,0.010708614
7.50038E+11,0.010717272
7.50344E+11,0.01072593
75075809524,0.010733922
7.51085E+11,0.010739916
7.52678E+11,0.010745242
7.53289E+11,0.010750572
7.53005E+11,0.010755234
7.53223E+11,0.010760562
7.53005E+11,0.010766556
7.52514E+11,0.010771884
7.52176E+11,0.010778542
7.51762E+11,0.010783872
7.51522E+11,0.010789866
7.51325E+11,0.010795194
7.51129E+11,0.010799854
7.50976E+11,0.010804518
7.51162E+11,0.010810512
7.50976E+11,0.010816504
7.50344E+11,0.010821834
7.49864E+11,0.010827162
7.49362E+11,0.01083249
7.49013E+11,0.010837818
7.48577E+11,0.010843146
7.48315E+11,0.010847806
7.47944E+11,0.0108538
7.47443E+11,0.010859796
7.4681E+11,0.010867122
7.46439E+11,0.010873782
7.46483E+11,0.010879776
7.46592E+11,0.010886436
7.46908E+11,0.010893096
7.46712E+11,0.010901754
74658095238,0.01091041
7.46614E+11,0.01091907
7.46799E+11,0.010927728
7.47017E+11,0.010935054
7.48664E+11,0.010943046
7.49275E+11,0.010950372
7.48882E+11,0.010957698
7.49144E+11,0.01096569
7.49057E+11,0.01097568
7.48751E+11,0.01098367
7.49133E+11,0.010991662
7.50715E+11,0.010998322
7.51631E+11,0.011004316
7.51282E+11,0.011011644
7.5174E+11,0.011019636
7.51478E+11,0.011026962
7.50911E+11,0.01103229
7.50976E+11,0.011038284
7.49777E+11,0.011044276
7.48141E+11,0.011051604
7.48468E+11,0.011057598
7.47748E+11,0.011063592
74737714286,0.01106892
7.46875E+11,0.011074914
7.45174E+11,0.011082906
7.43734E+11,0.011091564
7.42426E+11,0.011099556
7.41902E+11,0.011107548
74216380952,0.01111554
7.41815E+11,0.01112353
74148761905,0.011129526
7.40026E+11,0.011134854
7.38543E+11,0.011141514
7.36536E+11,0.011148838
7.34878E+11,0.0111555
7.33613E+11,0.011163492
73221714286,0.01116882
7.30254E+11,0.01117548
7.28465E+11,0.011183472
7.26633E+11,0.01119213
7.22009E+11,0.011200786
7.20874E+11,0.011210112
7.18562E+11,0.011219434
7.15901E+11,0.011228092
7.13371E+11,0.011236086
7.11146E+11,0.011244078
7.06303E+11,0.011252736
7.01854E+11,0.011261392
6.96618E+11,0.011268054
6.89464E+11,0.011274714
6.78121E+11,0.011283372
4.69938E+11,0.01129869
